title: EEG-recording_ActualElectrodes, recorded: 23.05.19 01.34.31, timestamp started:2017-11-21T16:17:43.558438-08:00            , sampling:128, subject:, labels:COUNTER INTERPOLATED F3 FC5 AF3 F7 T7 P7 O1 O2 P8 T8 F8 AF4 FC6 F4 RAW_CQ GYROX GYROY MARKER MARKER_HARDWARE SYNC TIME_STAMP_s TIME_STAMP_ms CQ_AF3 CQ_F7 CQ_F3 CQ_FC5 CQ_T7 CQ_P7 CQ_O1 CQ_O2 CQ_P8 CQ_T8 CQ_FC6 CQ_F4 CQ_F8 CQ_AF4 CQ_CMS CQ_DRL, , chan:40, samples:1333, units:emotiv
42,2718,9313,14880,14685,13345,8543,7966,32,3614,5343,10846,10273,8352,7457,
43,2782,9441,15136,14877,15329,10271,8094,32,3806,5535,11934,12001,9888,8225,
44,2846,9313,15072,14813,14369,7775,7262,32,3870,5471,11614,10209,9120,7649,
45,2910,9313,15200,14749,13729,7391,7646,32,4062,6687,12382,11553,9696,7905,
46,2974,9697,15456,15069,14945,7135,7454,32,4062,6815,12638,13473,10464,8673,
47,3038,9697,15456,14813,14561,5727,6750,32,3678,5599,12062,12193,9504,8225,
48,3102,9633,15392,14621,13089,7007,7262,32,3998,7007,12190,12065,9568,7713,
49,3166,8993,15328,15005,13601,9247,7582,32,4254,9311,12702,13281,10848,8033,
50,3230,9121,15328,15453,14945,9695,6878,32,4318,9183,13086,13025,11168,8225,
51,3294,9185,15328,14685,14561,9439,7198,32,4254,8543,13470,13089,11552,7777,
52,3358,9313,15584,14685,13857,9439,7646,32,4190,8223,13022,12897,11936,7777,
53,3422,9185,15328,15133,13921,9183,6814,32,3806,6943,12190,11041,11104,8097,
54,3486,9249,15328,15133,12705,7519,6302,32,3742,5407,12126,10401,10400,7841,
55,3550,8417,15776,14877,11489,7711,6686,32,3870,4959,12062,11361,10848,7713,
56,3614,8161,15968,15325,12449,10079,5854,32,3934,6111,11870,11745,11552,8289,
57,3678,9249,15840,15389,14241,10079,5214,32,4254,7519,12126,12001,12512,8545,
58,3742,9505,15712,14813,14369,8415,6238,32,4254,7455,12510,12129,12832,8225,
59,3806,9249,15776,14813,13729,9119,6686,32,4190,7135,12958,12129,12576,8225,
60,3870,9505,15648,15069,14177,10591,6302,32,4382,7711,13022,12577,12832,8545,
61,3934,9697,15776,15133,14753,10783,6750,32,4638,7455,12446,13409,13280,8545,
62,3998,9249,15904,14877,14497,10847,7390,32,4318,7007,12126,13537,13280,8609,
63,4062,9697,15584,14941,13601,10655,7582,32,4318,7583,12062,12769,12576,8737,
64,4126,9889,15008,15005,13473,10463,7518,32,4574,7711,11486,11617,11552,8353,
65,4190,9441,14944,15133,13345,9951,7198,32,4510,6943,10846,10593,10720,7776,
66,4254,9121,15328,15069,12705,9503,7198,32,4318,7135,11422,10913,11040,7969,
67,4318,9313,15584,15069,12193,9759,7390,32,4382,7583,12382,12001,12000,8545,
68,4382,8673,15456,15005,12513,9695,7390,32,4254,7455,12766,12641,12704,8609,
69,4446,8993,15648,14941,13025,9759,7198,32,4254,7455,12638,12449,12768,8481,
70,4510,9121,15712,14557,12769,10463,7390,32,4254,7775,12446,11809,12576,8417,
71,4574,9121,15584,15069,12193,10015,7198,32,4254,7007,12190,10721,12192,7968,
72,4638,8865,15200,14813,12321,10143,6814,32,4126,6879,12190,10465,11936,7904,
73,4702,9249,15264,14621,12065,11423,6430,32,4190,7519,12062,10273,11104,8416,
74,4766,8993,15456,14749,11809,10591,6494,32,3934,7199,11550,10017,10272,8288,
75,4830,8993,15392,15069,12897,10911,7134,32,4062,6687,11998,11745,11040,8224,
76,4894,9313,15456,14621,14305,14175,7454,32,4638,7455,13022,13857,12576,8609,
77,4958,9313,15520,14685,14177,14815,7902,32,4766,8159,12894,13665,12256,8673,
78,5022,9313,15712,15197,13025,12383,7902,32,4574,8031,12190,12897,11744,8353,
79,5086,9569,15840,15133,12769,11871,7134,32,4958,8607,12382,13601,13024,8545,
80,5150,9697,15712,14877,13345,12383,6558,32,5790,9055,12894,13473,13472,8865,
81,5214,9121,15264,14621,13857,11295,6430,32,5726,8543,12830,12769,12704,8801,
82,5278,9377,15456,14813,14689,10847,6302,32,5598,8351,12318,13153,12576,8801,
83,5342,9569,15776,14877,15649,12959,7262,32,5854,9311,12702,14241,13664,8801,
84,5406,9441,15776,15261,14817,13791,7966,32,6110,9375,12766,13921,13792,8801,
85,5470,8609,15520,14941,13089,12255,7006,32,5470,7903,11550,12513,12768,8608,
86,5534,9185,15712,14557,13345,12191,6814,32,5214,7199,11550,12449,13088,8481,
87,5598,9249,15584,14429,13409,12767,7326,32,5342,7583,12702,12961,13920,8673,
88,5662,8993,15264,15005,11873,11039,6686,32,5278,6943,12382,12129,12896,8673,
89,5726,8545,15136,14941,12321,10335,6942,32,5150,6559,11998,12065,12768,8545,
90,5790,9185,15392,14685,14241,12511,7710,32,5214,7839,12766,13537,15008,8545,
91,5854,9633,15776,14493,14945,13535,6814,32,5342,8351,11998,13601,15392,8353,
92,5918,9569,15776,14941,14113,12575,6110,32,5278,7519,10846,12065,13536,8353,
93,5982,9505,15456,15453,13793,13151,6686,32,5470,8095,11934,12129,12960,8736,
94,6046,9633,15392,15133,13921,12447,6814,32,5150,8031,11998,11681,12064,8032,
95,6110,9889,15520,14813,12641,9567,6558,32,4894,5855,10206,9441,9568,7136,
96,6174,9697,15200,14941,12001,10655,6750,32,5086,5151,10526,9505,9312,8032,
97,6238,9633,14944,15197,13345,13535,6366,32,5278,5791,12062,11745,11360,9120,
98,6302,9185,15200,14941,14177,12895,5726,32,5022,5535,11870,12513,12576,8672,
99,6366,9377,15840,14941,13601,11807,5854,32,5214,4959,10974,11681,12640,8417,
100,6430,9313,15456,14621,13985,11935,5470,32,5278,5791,10910,12129,13408,8737,
101,6494,9505,15200,14621,14305,10783,4254,32,5278,6687,11230,13025,14496,8673,
102,6558,9057,15584,14685,13281,10015,4318,32,5406,6175,10974,12065,13664,8289,
103,6622,9057,15904,15069,12705,10463,5150,32,5022,4767,10014,10209,11872,8161,
104,6686,8929,15456,15005,13281,11487,5406,32,4830,5279,10398,11041,12768,8481,
105,6750,8993,15456,15069,13921,11807,5598,32,5534,6495,11870,12641,14496,8673,
106,6814,9185,15712,15069,13217,10143,6174,32,5598,5983,11934,11681,13472,8481,
107,6878,9441,15520,15133,12321,9951,6238,32,5150,5791,11166,10721,11936,8673,
108,6942,9313,15200,14877,12833,12127,6302,32,5470,6943,11038,11169,12000,8993,
109,7006,9057,15328,14813,12833,11743,6558,32,5406,6239,11038,10529,11168,8481,
110,7070,9505,15584,15069,11873,9503,5982,32,4894,4447,10974,9185,9568,7648,
111,7134,9761,15584,15133,12449,10015,6174,32,5278,5727,11934,10721,10592,8096,
112,7198,9761,15520,15261,13281,12127,6942,32,5470,7199,12446,13025,13088,9184,
113,7262,9377,15392,15197,13025,12831,6878,32,4574,5151,11614,12577,13280,8672,
114,7326,9441,15520,15133,13153,11743,6110,32,4382,2975,10590,10657,11680,7584,
115,7390,9377,15520,14749,13473,11167,5598,32,4574,3999,11038,10913,11936,8160,
116,7454,9569,15328,14749,12257,10527,4510,32,4382,5215,11934,11745,12896,9120,
117,7518,9185,15264,14621,12065,9631,3934,32,4446,5023,11614,11681,13152,8736,
118,7582,9377,15648,14685,13537,10399,5086,32,5278,5663,11166,11809,14112,8481,
119,7646,9249,15648,14685,14049,11871,6046,32,5598,7327,11998,12641,15072,8865,
120,7710,9377,15584,15197,13473,11231,5470,32,5022,7519,12190,12577,14752,8417,
121,7774,9185,15456,15133,13281,9247,4766,32,4446,5471,10910,10913,13792,7393,
122,7838,9057,15072,14877,12577,8479,4574,32,4574,4127,10078,9377,12768,7649,
123,7902,8865,14880,14749,11745,9439,5214,32,5086,5279,10782,9953,12512,8481,
124,7966,9121,15328,15133,12001,10015,5534,32,5214,6239,11550,10849,12704,8353,
125,8030,9249,15648,15197,12193,9119,4574,32,5214,5599,11678,10721,12960,8033,
126,8094,9249,15456,14685,12833,8607,3998,32,5022,5599,11678,11425,14304,8417,
127,8158,9249,15136,14493,13729,9887,4766,32,4958,6239,12062,12641,14880,8737,
244,15646,9249,15136,15005,12961,10975,5278,32,5150,6687,12766,12769,14176,8737,
0,30,9953,15392,15005,11617,10527,5150,32,5022,6367,12126,10913,13408,8673,
1,94,9761,15072,14557,11617,10015,5342,32,4382,4383,9886,7713,11680,7840,
2,158,9441,15136,14685,12321,10527,5726,32,4254,2335,8926,7009,10592,7328,
3,222,9313,15584,14749,14113,12447,5534,32,4446,2527,10014,9441,12256,7776,
4,286,9633,15584,15005,15137,12511,4254,32,4638,3103,10334,10465,12768,8353,
5,350,8993,15328,15069,13729,10015,3550,32,4510,2911,9886,10657,12320,8353,
6,414,8673,15648,15133,14305,9183,3358,32,4510,2783,9950,11105,13536,7905,
7,478,8609,15456,14942,1505,10207,2206,32,4382,2271,9502,10273,13792,7713,
8,542,9249,15200,15070,2081,9951,1630,32,4766,2591,9374,10465,13920,8161,
9,606,9057,15776,14814,1569,9247,2782,32,5406,4831,10270,12706,32,8417,
10,670,8801,15904,14814,4577,8927,3486,32,5214,5407,10334,12706,1376,8161,
11,734,9377,15392,14686,6817,8735,3806,32,4830,3615,10270,11682,992,8225,
12,798,9825,15648,14558,5473,9951,4126,32,5406,3359,11230,13090,2336,8673,
13,862,9185,15776,14750,4321,10527,3422,32,5982,4383,11358,14498,3360,8801,
14,926,9057,15136,14814,4257,9311,2910,32,5150,3743,10782,13602,1952,8673,
15,990,9761,15392,14622,2657,8863,3806,32,4638,3039,10718,11938,32,8353,
16,1054,9441,15904,14814,929,9311,4382,32,5150,3231,10462,11809,15520,8481,
17,1118,9569,15776,15134,993,10015,3486,32,5086,2975,10270,13089,15392,8865,
18,1182,9633,15200,14814,417,10143,3038,32,4574,2975,10910,13537,15264,8609,
19,1246,9505,15200,14941,14497,7711,3102,32,4702,3359,10718,11937,14112,7841,
20,1310,8801,15392,14685,14497,7327,3486,32,4958,3423,10270,11553,13920,7841,
21,1374,9249,15456,14621,16225,9951,3870,32,5022,4127,10910,12705,14816,8545,
22,1438,9185,15264,14557,15201,9439,3550,32,4958,4511,11038,12449,14368,8417,
23,1502,9505,15264,14877,12961,7455,2590,32,4702,2847,9886,10785,12832,8097,
24,1566,9249,15648,15133,13281,8479,2462,32,4318,2207,9886,10849,12832,8289,
25,1630,8801,15456,15197,13345,7647,2846,32,4446,3039,10462,11105,12832,7905,
26,1694,8929,15072,14749,11809,5343,2718,32,4446,2591,9438,9505,11488,7456,
27,1758,9569,15456,14557,12001,7455,2718,32,4126,2079,8734,9057,11040,7904,
28,1822,9569,15520,14877,13025,9311,2910,32,3742,2143,9694,9249,11424,7840,
29,1886,9569,15008,14877,12705,8287,3550,32,3806,1823,10846,9505,12064,7712,
30,1950,10017,15136,14877,12769,9311,4254,32,4574,2463,10654,10785,13280,8352,
31,2014,9569,15520,15197,14113,10911,3998,32,4830,3551,10014,11809,13664,8608,
32,2078,9377,15392,15261,13985,10015,3486,32,4382,3039,10398,11425,12384,8480,
33,2142,9249,14944,14685,12257,8607,3550,32,4574,2655,10590,10913,11232,8289,
34,2206,9633,15264,14685,11681,7839,3358,32,4958,3103,9822,10849,11552,7777,
35,2270,9505,15456,15069,13601,8991,3550,32,4382,3487,10142,10913,12384,7841,
36,2334,9185,15456,15261,14625,10655,4190,32,4446,3039,11102,10465,12256,8225,
37,2398,8609,15264,14621,13153,10527,3742,32,4702,2335,10526,10337,11616,8097,
38,2462,9313,15264,14685,12385,9055,2654,32,4382,2591,9950,11297,12064,8225,
39,2526,9313,15264,14685,12897,7967,2590,32,4446,3295,10782,11745,12576,8609,
40,2590,8929,15520,14813,12705,7711,2782,32,5022,3167,11358,11041,12448,8161,
41,2654,8929,15328,15069,13217,9247,3742,32,4958,3551,11038,11681,12832,8033,
42,2718,9249,15136,15261,13985,11487,4894,32,4830,4831,11038,12065,13408,8481,
43,2782,8993,15328,14813,12897,10975,4574,32,4894,4767,11358,10977,12576,8417,
44,2846,9057,15264,14813,11745,9887,3742,32,4766,3871,11358,10657,11424,8161,
45,2910,9569,15392,15325,13345,12063,4190,32,5150,4575,11742,11873,12448,8353,
46,2974,9633,15584,15197,16225,13983,5150,32,5534,5727,12702,13921,15008,9185,
47,3038,9889,15648,15133,16289,12319,4574,32,5662,4959,12574,14625,15648,8993,
48,3102,9633,15776,15005,14561,11935,3806,32,5726,4127,12126,14049,14752,8417,
49,3166,9505,16096,14685,14881,13919,4190,32,5406,4191,12254,13793,14688,8609,
50,3230,9569,15648,14365,16353,14111,5022,32,5406,4767,12638,14433,15264,8993,
51,3294,9889,15328,14621,15969,13663,5022,32,5726,5343,13022,14369,15392,8737,
52,3358,9441,15584,14685,15713,13343,5214,32,5598,5151,13470,14561,15648,8545,
53,3422,9441,15904,14878,609,13023,6238,32,5790,5087,13406,15522,288,8865,
54,3486,9057,15968,14942,1441,15391,7134,32,6110,6431,13470,15970,928,8993,
55,3550,8993,15904,15070,1122,1311,7006,32,5982,6687,13918,15906,544,8993,
56,3614,9121,15712,14750,1122,863,6302,32,5790,5215,14047,34,864,9121,
57,3678,9377,15840,14814,1761,16159,5726,32,6046,4703,13727,226,1504,9121,
58,3742,8993,15904,14750,2593,15711,5918,32,5918,5343,13918,16162,1376,9185,
59,3806,8993,15776,14686,3426,415,6494,32,6046,6431,15199,1378,2464,9313,
60,3870,9633,15776,14622,4066,2463,7454,32,7070,7839,16031,4450,4896,9761,
61,3934,9761,15840,14622,4770,2975,7966,32,7134,7903,15391,4962,5600,10017,
62,3998,9313,15840,14942,6050,3423,7518,32,6942,7775,15391,4322,5536,9953,
63,4062,9249,15776,15134,7010,4639,7710,32,7006,8800,351,5474,7136,9761,
64,4126,10081,15840,14878,6498,3551,8094,32,7006,8032,479,5666,7264,10017,
65,4190,10017,16160,14494,6754,4255,7838,32,7006,6623,16159,4194,6496,10081,
66,4254,9698,32,15006,7394,6815,8030,32,7262,6816,31,4066,6944,9889,
67,4318,9441,15840,15198,6114,5535,8478,32,6558,6304,95,4130,6752,9569,
68,4382,9505,15648,14942,5154,4831,8414,32,6430,6047,15903,2914,5536,9569,
69,4446,9249,15904,14686,5858,6559,9182,32,7262,7775,15327,2658,5152,9569,
70,4510,9505,15904,14878,5602,5727,9822,32,6942,8095,14943,2658,4448,9569,
71,4574,9441,15584,14814,5922,5919,9182,32,6174,7007,15967,2594,4000,9889,
72,4638,9377,15712,14814,7650,8927,8990,32,6814,7072,479,2978,4960,9825,
73,4702,9313,15840,14942,7970,9439,9182,32,7070,7263,16223,3234,6560,9377,
74,4766,9569,15776,15134,7010,7583,8030,32,6878,7199,16223,3810,7648,9313,
75,4830,9697,15776,14942,7138,7135,7070,32,7134,7200,415,4130,8032,9633,
76,4894,9761,15904,15006,8034,7711,7390,32,7198,6240,159,3938,8032,10082,
77,4958,9697,15840,15070,7970,8415,7390,32,7198,5920,1055,4962,8736,10402,
78,5022,9761,15776,15006,7842,8671,6622,32,7198,6560,1631,6178,9376,10210,
79,5086,10145,16096,15070,8610,8415,5854,32,6942,5727,16159,5346,9120,9826,
80,5150,9953,16160,14942,9250,7391,5790,32,6814,5151,16351,5282,9184,9762,
81,5214,10081,15840,15070,8482,5727,5854,32,7070,5984,2271,6370,9504,9825,
82,5278,9825,15968,14878,9314,8415,6430,32,7390,6688,2463,7074,10080,9953,
83,5342,9826,96,14686,10722,11487,6622,32,7326,5664,2143,7394,10080,9889,
84,5406,9441,16096,14430,9698,9439,5022,32,7198,4384,1951,6626,8736,9633,
85,5470,9377,15776,14686,9186,7327,3166,32,6942,3680,479,4770,7200,9377,
86,5534,9185,15968,14750,9698,6111,2718,32,6366,1183,15967,2658,6368,9057,
87,5598,9377,16032,14814,9762,4639,2782,32,5725,14815,15391,674,6240,8865,
88,5662,9249,15968,14814,12770,7455,2782,32,5725,14943,14623,1122,8544,8993,
89,5726,9185,16160,15006,16162,10207,2910,32,6237,15775,15135,3426,12256,9121,
90,5790,9057,16160,14878,16098,6367,2270,32,6109,14943,16287,4834,14560,9057,
91,5854,8929,16288,14943,482,3679,926,32,6301,15584,735,6051,160,9185,
92,5918,9249,16352,15007,3042,5279,30,32,6750,1120,1311,7075,2080,9378,
93,5982,9569,15904,14879,2722,4766,15646,32,6685,16288,863,6563,1632,9634,
94,6046,9569,15904,14751,802,2910,15006,32,6493,14048,95,5411,288,9570,
95,6110,9569,16224,14559,226,3294,14878,32,6301,14367,16223,4963,160,9442,
96,6174,9889,16096,14750,15650,4126,14430,32,5981,14111,16159,4258,15328,9314,
97,6238,9569,15648,14750,13986,3934,13662,32,5533,12704,31,3426,13152,9057,
98,6302,9633,15520,14878,12130,3358,13406,32,5405,12832,95,3042,12384,9121,
99,6366,9697,15584,14686,10018,2078,13150,32,4829,12319,15711,1314,10656,8417,
100,6430,9633,15904,14878,8930,1118,12318,32,4637,10783,15774,15266,7584,7649,
101,6494,9249,16032,14878,8738,2078,12254,32,4957,11552,158,15330,6944,7841,
102,6558,9441,15776,15070,7522,2590,13214,32,5021,12576,158,16226,7776,7841,
103,6622,9185,15584,15006,6818,2334,13470,32,4701,12128,542,15330,7264,7521,
104,6686,9121,15840,14814,6690,1438,12254,32,4637,11936,798,13986,6304,7649,
105,6750,9249,15648,14686,5025,15710,11358,32,4381,11488,30,13410,5600,7265,
106,6814,9441,15584,15006,4001,15838,11422,32,4061,10528,350,13922,5344,6881,
107,6878,9825,16160,15262,5666,2526,10654,32,4253,10336,1182,15266,6688,7521,
108,6942,8609,15904,14430,6370,1502,9694,32,3677,10208,670,15330,6880,7585,
109,7006,8545,15520,14494,4769,14110,10014,32,2973,9184,30,13730,4896,7009,
110,7070,9825,15776,15006,3681,15774,10462,32,3037,7904,414,12706,3872,6945,
111,7134,9889,15584,15006,3682,2398,9950,32,3485,7199,16094,12514,3872,6817,
112,7198,8865,15072,14686,3554,1694,9566,32,3421,7839,15134,12706,3808,6817,
113,7262,9313,15392,14878,2337,16350,9374,32,3037,7519,15390,11554,2784,6561,
114,7326,9825,15520,14750,673,15326,9118,32,2717,6431,15774,9826,1696,6177,
115,7390,9377,15008,14494,289,14814,8670,32,2845,6495,15902,9826,1824,6497,
116,7454,9377,15200,14750,1313,15966,8094,32,2973,6943,16094,10658,2720,6497,
117,7518,9441,15648,14942,1890,1182,7902,32,2589,7008,30,10530,2720,5921,
118,7582,9057,15200,15262,1314,1310,8094,32,2333,7328,478,10338,2528,5793,
119,7646,9441,15072,15133,16097,16222,7198,32,2269,6239,16350,9250,2080,5793,
120,7710,9249,15328,14365,15137,13918,5854,32,1565,4127,14750,7586,1440,5345,
121,7774,9505,15520,14878,289,14238,5790,32,1885,4319,14750,8482,2592,5729,
122,7838,8737,15200,14942,2658,1310,6622,32,2461,6048,862,11426,5088,6497,
123,7902,9057,15648,14814,2786,1886,6302,32,2397,5920,2078,12706,5408,6753,
124,7966,9185,15648,14494,2210,30,5406,32,1693,5024,1118,12130,4576,6497,
125,8030,9569,15584,15006,2593,16350,4894,32,1885,4512,734,11234,4064,5921,
126,8094,9569,15520,14750,1441,16030,3742,32,1949,3104,798,10082,2912,5601,
127,8158,9633,15648,14813,16097,14814,2910,32,1373,2016,798,10018,2336,5729,
244,15646,9377,15200,14750,353,16222,3870,32,1181,3296,734,11234,3552,5793,
0,30,9697,14752,14814,866,478,4382,32,1373,4000,670,10594,3616,5793,
1,94,9761,15200,15133,16353,14814,3678,32,1501,3296,798,9314,2400,5601,
2,158,9057,15584,15005,16225,14238,3166,32,1053,3808,1182,9698,2336,5217,
3,222,9505,15456,15069,15585,14046,2206,32,1053,3808,926,9122,1952,5217,
4,286,9249,15072,15005,14689,13534,1566,32,925,2976,1182,8418,1952,5665,
5,350,9185,15392,15325,14881,13598,2014,32,989,2912,1438,8930,3232,5793,
6,414,8481,15392,14813,15265,13726,2078,32,989,2976,1374,9186,3488,5793,
7,478,9121,15392,14877,14817,12446,734,32,861,1632,1310,8866,2272,5729,
8,542,9121,15200,14685,15457,13022,542,32,477,992,1694,9378,2656,5281,
9,606,9633,15392,15453,15969,14942,1182,32,733,1248,1950,9250,3296,5281,
10,670,9057,15072,15389,14497,13342,94,32,861,928,1694,8290,2400,5345,
11,734,9057,14688,15069,13409,11037,14942,32,605,224,1118,8482,1888,5281,
12,798,9313,15200,14941,14625,13021,15326,32,349,864,1502,10146,2912,5473,
13,862,9441,15712,15325,15457,14429,14942,32,349,800,1502,9698,2464,5793,
14,926,9569,14944,15453,14561,11805,12894,32,156,15264,286,7330,416,5281,
15,990,9761,14432,15197,14241,12125,12254,32,348,14752,30,7714,1120,5025,
16,1054,9697,15136,15005,14753,14813,12766,32,476,15456,286,8930,2912,5217,
17,1118,9313,15136,15005,14305,13213,11678,32,156,14879,16222,7522,2208,5025,
18,1182,9697,14752,15069,12961,10525,10142,32,220,14495,16286,5986,1184,4961,
19,1246,9377,14944,14749,12001,11421,10206,32,28,15328,286,5858,1696,5089,
20,1310,9313,15392,15005,11681,12829,10846,32,92,15712,734,5602,1632,4833,
21,1374,9313,15008,14877,12321,13725,11358,32,413,160,1438,5858,1760,4897,
22,1438,9697,14816,14749,12577,13789,10910,32,285,96,990,5858,2016,5089,
23,1502,8865,15072,14429,12577,13917,9758,31,16092,14880,158,6242,2144,5089,
24,1566,8993,15264,14813,12321,13981,8734,31,16156,14304,542,7202,2656,5281,
25,1630,9057,14880,14557,11873,13661,8798,31,16220,15136,478,7138,2848,5153,
26,1694,9057,15008,14749,11937,13789,8542,31,16028,14495,15838,6050,2208,4833,
27,1758,8865,14688,15005,12513,15261,7902,31,16092,13023,16286,6370,2272,4833,
28,1822,9249,14368,15197,12897,15837,8222,31,16284,13152,606,7522,2784,4961,
29,1886,9505,14688,15069,12513,13405,8286,31,15900,13087,16030,6626,1632,4897,
30,1950,9569,15072,14813,12321,13277,7838,31,15260,12383,15582,5858,800,4769,
31,2014,9825,15008,14813,12257,15389,7518,31,15452,13343,16222,6562,1440,4641,
32,2078,9761,15008,15133,11873,15325,7134,31,15964,14943,16350,7394,2144,4769,
33,2142,9825,15008,15069,11489,14493,7070,31,16092,14560,350,7394,1824,5025,
34,2206,9249,14624,14365,11041,14045,7070,31,15260,13408,670,6434,800,4833,
35,2270,9185,14816,14749,10273,12637,5598,31,14492,11935,15838,4641,15776,4577,
36,2334,8993,14944,15389,9889,12765,4446,31,14300,10463,15006,4385,15584,4577,
37,2398,9377,14688,15133,9761,14045,5022,31,14748,10975,15070,5537,16352,4513,
38,2462,9057,14688,14685,9313,12765,5278,31,14492,12447,14942,5346,480,4385,
39,2526,8993,15200,15197,8993,11357,4638,31,14236,12191,15134,4770,1056,4513,
40,2590,8865,15136,15069,9057,11933,3870,31,14428,11423,15582,5410,1696,4449,
41,2654,9313,14944,14685,8289,12125,3294,31,14620,11039,14942,5282,1056,4513,
42,2718,9185,14816,14685,8545,13341,4638,31,14684,10783,14750,4322,224,4385,
43,2782,9121,14752,15325,8801,13789,6366,31,14876,10911,14814,2081,15584,3937,
44,2846,9121,14688,15005,6689,11805,6110,31,14556,10527,13854,33,14496,3873,
45,2910,9121,14752,14749,6497,12381,5214,31,14300,9759,13726,1377,15648,4321,
46,2974,9185,14944,15069,8417,14493,4958,31,14620,9503,15070,4898,1632,4321,
47,3038,9249,14816,15325,7457,12765,3870,31,14236,9119,15006,5474,1440,3617,
48,3102,9313,14752,15261,6177,11037,2462,31,13916,8159,13534,3681,16352,3873,
49,3166,9185,14944,14941,7905,12829,2270,31,14236,8159,13790,3938,608,4577,
50,3230,9313,14880,15069,7905,11677,2142,31,14300,8479,14750,5026,1632,4449,
51,3294,8993,14816,14877,6305,9373,2270,31,13980,8799,14110,4386,1248,4129,
52,3358,9121,15072,14941,6817,11933,2974,31,14108,9375,13726,3362,480,4513,
53,3422,8801,14688,14813,7073,14237,2910,31,14236,9439,14686,3426,160,4385,
54,3486,9185,14432,15261,5921,11485,1630,31,13852,9055,14814,3298,160,3745,
55,3550,8929,14752,15325,6497,10333,1502,31,13724,9311,14558,3554,736,4129,
56,3614,8865,15072,15005,7713,12253,2718,31,14236,9055,14366,3874,672,4257,
57,3678,8929,14816,14877,7009,12189,3166,31,14428,8543,14110,2913,16224,3233,
58,3742,9313,14752,15325,6433,10909,2334,31,14172,8607,14238,2786,96,3233,
59,3806,8993,14944,15261,6753,10397,1502,31,13852,8415,14238,3938,736,3937,
60,3870,8993,15008,14941,6625,10589,2014,31,13916,8479,14302,4322,544,3681,
61,3934,9377,14880,15069,7073,12509,3550,31,14236,9503,15646,4514,736,3681,
62,3998,9441,14752,15325,8225,13789,4062,31,14364,10207,16222,5090,1376,4321,
63,4062,9505,14880,14813,8097,12701,3742,31,14300,9951,15646,4834,672,4129,
64,4126,9121,14816,14557,7521,12637,4062,31,14172,9951,15838,4449,16032,3489,
65,4190,8993,14688,15069,7393,12573,3678,31,14236,10463,15326,3873,15520,3361,
66,4254,9185,14560,15069,6753,11421,3166,31,14300,10975,14622,2977,15264,3361,
67,4318,9505,14816,14941,6177,12125,3678,31,14364,10527,15518,2977,15136,3489,
68,4382,9121,14816,14749,6753,13853,3998,31,14108,9887,16030,3937,15392,3681,
69,4446,9377,14816,15197,6625,11933,3294,31,14108,10271,15262,3553,14880,3617,
70,4510,9185,14880,15069,6497,10525,3358,31,14236,11167,15582,2913,14368,3361,
71,4574,9441,14752,15069,7073,12573,3742,31,14236,10719,15582,2849,14304,3297,
72,4638,9185,14624,14877,7201,14045,3614,31,13916,9631,14302,2721,14176,3233,
73,4702,8993,15008,15069,7713,13533,4126,31,13916,9823,15006,3169,14432,3361,
74,4766,8865,15008,15197,8993,13085,4766,31,14236,10784,350,4769,15456,3681,
75,4830,9249,14624,15261,8673,13085,5150,31,14108,10975,16094,4833,15840,3617,
76,4894,9185,14560,15069,7457,12829,5150,31,13724,10783,14558,3169,15264,3297,
77,4958,8993,14624,14941,7521,12765,4510,31,13852,10591,14686,2849,14880,3233,
78,5022,9313,14624,14877,7841,13277,4062,31,14428,11103,15774,3617,15072,3361,
79,5086,9441,14752,14557,7713,12253,4190,31,14492,11999,16286,3745,15264,3681,
80,5150,9761,14816,14749,8097,10461,4254,31,14300,12128,30,4385,15712,4257,
81,5214,9569,14880,15261,8545,11549,4574,31,13980,12128,350,5666,288,4257,
82,5278,9569,14880,15261,8609,13789,4702,31,14172,11999,16030,5474,288,3425,
83,5342,9569,14496,14813,8033,11357,3934,31,14236,11167,14622,3809,15776,2977,
84,5406,9825,14688,15005,7393,8221,3934,31,14044,10463,14814,3553,15648,3425,
85,5470,8993,14624,14877,7841,10333,5406,31,13916,11103,16350,4706,32,3681,
86,5534,8673,14496,14813,8033,12573,5662,31,14236,11231,16158,4513,16224,3361,
87,5598,8929,14688,14749,7329,12061,4894,31,14300,11231,15006,3809,15264,3233,
88,5662,9313,14816,15069,7009,10525,4766,31,14364,12063,15070,4001,14816,3745,
89,5726,8865,14304,15005,7393,9949,5534,31,14428,12703,15646,4449,15200,4001,
90,5790,9121,14560,15197,7905,11549,6046,31,14492,12831,16094,4641,15328,3745,
91,5854,9569,14944,15069,8417,13085,6174,31,14428,12511,16030,5217,15072,3681,
92,5918,9569,14624,15069,8161,11677,6238,31,14300,11231,14942,5281,15328,3617,
93,5982,8993,14752,15133,8673,10973,5726,31,14108,9439,13982,3041,15072,3297,
94,6046,8993,15072,14877,9889,11997,5022,31,13980,8863,13918,929,14304,3041,
95,6110,9761,14816,15133,9057,8989,4638,31,13980,9311,13854,2209,15392,3041,
96,6174,9761,14560,15517,8161,6877,4446,31,13852,9567,14174,6050,2272,3553,
97,6238,9569,15072,15517,9761,10397,4574,31,14044,10847,15390,9570,5792,4321,
98,6302,9505,15008,15261,10657,12445,5662,31,14300,13600,350,13154,8864,4769,
99,6366,10017,14816,15389,9377,11165,6622,31,14812,15200,607,482,11808,4961,
100,6430,9633,14944,15325,8993,10973,7070,31,15388,15392,927,2914,14240,5281,
101,6494,9761,15200,15325,7457,9117,6558,31,15452,15584,1375,2850,14112,5217,
102,6558,9505,15072,14877,5601,7965,6110,31,14748,15840,1247,1314,12256,4897,
103,6622,9185,15008,14749,6625,11421,6878,31,14364,15264,671,546,11168,4833,
104,6686,8993,14624,14941,7585,12509,7966,31,14620,14816,543,482,10720,4705,
105,6750,9441,14496,15261,6433,9757,7774,31,15004,15200,542,15714,9376,4705,
106,6814,9185,14688,14813,6689,11229,7390,31,15196,16032,606,14562,7648,4705,
107,6878,9185,14624,14685,6369,12125,7390,31,15004,15328,350,12962,4960,4449,
108,6942,9057,14368,14685,3553,7901,6878,31,14492,13407,15966,10210,1632,4001,
109,7006,9057,14688,14749,3297,7517,7134,31,14492,13919,16030,9698,1248,3745,
110,7070,9441,14944,15005,4897,10397,7262,31,14620,15008,30,11362,2400,3937,
111,7134,9633,14752,15325,4449,10461,6366,31,14492,13919,15582,11362,2400,4385,
112,7198,9313,14880,15005,3873,9245,6366,31,14300,12703,14430,10274,1952,4833,
113,7262,9313,14752,14557,4001,7837,6942,31,14172,12447,14558,10018,1248,4193,
114,7326,9825,14560,15069,3233,7197,6814,31,14044,12255,15582,9313,16288,3553,
115,7390,9313,14624,15133,3041,9629,7134,31,13788,12383,15838,7777,15136,3809,
116,7454,9249,14880,15069,3745,11869,8094,31,14044,12703,14814,7329,14880,3809,
117,7518,9441,14624,15069,2977,9693,8542,31,14300,13215,14686,8033,14816,3233,
118,7582,9633,14560,15261,2593,7965,8862,31,14172,14239,15774,8161,14944,3361,
119,7646,8865,14432,14813,4065,10845,9950,31,13916,15647,16158,7905,14880,3873,
120,7710,9313,14432,14813,4385,13021,10398,31,14364,16287,16030,8417,15008,4001,
121,7774,9505,14688,15133,3425,11357,10206,31,14684,16352,798,9825,15776,4385,
122,7838,9185,14880,15069,3361,9501,10334,31,14685,160,1630,10721,15904,4705,
123,7902,9057,14624,14621,5025,11293,10846,31,14685,736,1118,10721,15840,4129,
124,7966,9697,14624,14749,6049,12957,10846,31,14557,864,1182,11170,160,4065,
125,8030,9761,14688,14941,5537,11933,10718,31,14493,1120,2142,12642,1632,4641,
126,8094,9505,14560,15069,4129,9629,11102,31,14685,864,1374,12130,992,4385,
127,8158,9185,14304,14941,2465,9245,11550,31,14492,14879,15902,8161,13664,3361,
244,15646,9249,14368,14813,1825,11101,12062,31,14172,13407,14942,5089,11296,3105,
0,30,9761,14688,15005,1825,11037,12254,31,14172,13663,14110,4769,11680,3169,
1,94,9505,14816,15069,2721,10013,12318,31,14364,14943,14942,6561,13280,3361,
2,158,9377,14688,15069,3553,10013,12062,31,15005,1184,1054,9505,15072,4577,
3,222,9569,14368,15005,3745,9757,11614,31,15005,2400,1886,10593,15648,4577,
4,286,9697,14496,15453,3489,8989,10974,31,14365,352,478,8801,14432,3553,
5,350,8865,14752,15069,4129,9501,10718,31,14237,224,350,9249,15136,3745,
6,414,8993,14880,14941,4769,9245,10654,31,15005,2464,1502,11810,800,4641,
7,478,8929,14560,14941,4449,8541,10910,31,14877,2656,1822,11746,672,4513,
8,542,9121,14560,15069,4641,9949,11870,31,14621,1632,1694,10466,160,3937,
9,606,9057,14688,14877,4641,11357,12574,31,14749,2016,1182,9761,16288,3553,
10,670,9121,14624,15069,2849,9373,12318,31,14493,1823,16350,8097,14176,3425,
11,734,9057,14560,15005,1249,6173,11806,31,13980,16351,15774,7457,12768,3745,
12,798,9249,14752,14813,2465,7133,11550,31,14172,16096,606,9953,14816,4001,
13,862,9633,14688,15069,3937,9309,11806,31,14557,1120,1438,10977,15776,3489,
14,926,9505,14496,15133,2721,8541,11934,31,14301,1248,542,9249,14176,3553,
15,990,9569,14496,14749,2081,7389,11870,31,14173,736,734,9121,13728,3937,
16,1054,9697,14432,14877,3297,7389,11998,31,14493,1888,734,9761,13984,3425,
17,1118,9825,14752,15197,3745,8285,12702,31,14685,3551,16222,9249,13600,3233,
18,1182,9697,15008,14685,3041,9629,13598,31,14429,3872,990,9121,13216,3873,
19,1246,9953,14752,14813,2081,8797,13534,31,14365,2720,1822,8097,12064,3617,
20,1310,9505,14496,14941,2017,7389,13534,31,14237,1824,734,7265,11680,3297,
21,1374,9121,14560,15005,2401,8413,13790,31,14301,2464,30,8161,12512,3617,
22,1438,8929,14432,14493,2081,8477,14046,31,14109,3296,158,8033,12064,3553,
23,1502,9377,14368,14749,929,5853,13598,31,13597,2143,15902,6369,10400,3297,
24,1566,8865,14368,15069,225,5725,13150,31,13213,1183,15518,6241,10080,3169,
25,1630,9121,14560,15196,16097,6109,13022,31,13533,1695,15070,6689,10272,2977,
26,1694,9569,14688,14941,33,4637,13022,31,13789,2271,14430,5921,10080,2849,
27,1758,9505,14688,15261,1953,5469,13278,31,13917,2207,15198,5729,10464,3105,
28,1822,9185,14688,15261,2977,6685,13342,31,14045,2464,30,6945,11360,3233,
29,1886,9569,15008,15069,2081,4445,13086,31,13917,2463,16030,7521,11936,3233,
30,1950,9825,15072,15133,2145,3677,13342,31,14109,2015,15326,6689,11936,3105,
31,2014,9377,14496,15261,3169,6109,14046,31,14493,2015,15710,5921,11744,3105,
32,2078,9761,14368,15197,1633,5341,13918,31,14237,1951,15838,5345,10528,3105,
33,2142,9953,14496,15069,225,3485,14366,31,13661,2079,15774,5089,9504,3041,
34,2206,9825,14560,15069,1441,5085,15262,31,13981,2655,15838,5089,9696,3105,
35,2270,9505,14240,14749,1953,5661,14622,31,14173,3039,16030,5025,9696,2977,
36,2334,9953,14048,14941,1313,4893,14174,31,13981,3231,16094,5665,9952,3425,
37,2398,9633,14240,14749,2337,5725,14942,31,14045,3423,15966,7585,11872,4001,
38,2462,9249,14560,14813,2657,5277,14366,31,13981,2591,15326,8225,13024,3873,
39,2526,8865,14368,15005,1825,3229,13214,31,13405,1631,15262,7649,12768,3617,
40,2590,9185,14688,15069,2721,3677,13278,31,13533,1823,16094,8609,13536,3681,
41,2654,8993,15008,14493,4321,6301,14110,31,14045,2399,16350,10081,14688,3809,
42,2718,9249,14624,14877,4257,7133,15198,31,14045,2911,15518,9377,14048,3745,
43,2782,9313,14432,15261,4321,6749,15838,31,13981,3423,14430,8353,13280,3553,
44,2846,9441,14944,14941,4321,5405,15582,31,14301,3103,14878,8609,13280,3489,
45,2910,9569,15072,14813,3041,3229,15774,31,14301,2655,15582,8289,12576,3297,
46,2974,9761,14496,15133,2401,3293,16158,31,13981,2911,15134,6753,10784,3041,
47,3038,9825,14176,15005,3617,5981,16094,31,13917,3615,15518,6561,10080,2849,
48,3102,9505,14496,14941,4065,7646,414,31,14045,4063,15710,6881,10720,3169,
49,3166,9505,14624,15325,2657,5406,1054,31,14173,3487,14238,5921,10464,3297,
50,3230,9505,14304,15389,2081,3486,798,31,13981,3423,14430,6433,10912,3361,
51,3294,9697,14560,15325,2721,4509,16350,31,13981,3935,15454,7713,12320,3553,
52,3358,9313,14816,15197,2081,5533,15966,31,13917,3423,14494,6945,11872,3361,
53,3422,9697,14688,15261,417,4189,15710,31,13725,2463,14366,5729,10464,3233,
54,3486,9633,14304,15133,1505,4125,16094,31,13725,3679,15646,7009,11360,3681,
55,3550,9569,14368,15325,3745,5406,414,31,14045,4703,15070,7649,12192,3745,
56,3614,9185,14496,15133,4257,5406,734,31,13789,3679,14302,5857,11040,3233,
57,3678,9377,14688,14749,4001,5086,734,31,13725,2975,14494,4001,10464,3105,
58,3742,9121,14560,14237,3617,4190,94,31,13789,2015,13406,2913,9888,3041,
59,3806,8993,14688,14621,2721,2589,15774,31,13533,1055,12958,2401,8864,1632,
60,3870,9121,14816,14877,2081,3102,478,31,13341,1887,13598,2337,9183,15840,
61,3934,9761,14624,14749,2337,5662,2014,31,13469,2143,12894,2465,9631,14689,
62,3998,9953,14496,14621,2657,6238,1502,31,13341,1247,12190,2849,9439,14880,
63,4062,9697,14560,14749,2593,4126,158,31,12893,1375,12702,2721,8927,15072,
64,4126,9825,14432,14621,2273,3806,862,31,13085,2335,13214,2337,8735,15136,
65,4190,9761,14304,14621,1569,4062,1950,31,13469,2463,13470,2529,8799,15200,
66,4254,9633,14240,15260,16161,2206,1182,31,13277,671,12830,1377,7519,14688,
67,4318,9441,13920,15324,15393,1502,862,31,12700,15647,11677,16033,6239,14368,
68,4382,9761,14368,15133,1249,3614,1950,31,12893,479,11934,609,7327,15072,
69,4446,9441,14752,14813,2785,5022,2654,31,13341,2079,13150,2977,9183,15648,
70,4510,9377,14496,15069,1761,4126,2654,31,13469,1759,13406,3169,9247,15328,
71,4574,9185,14368,15069,1377,3870,2974,31,13277,1759,12958,2337,8415,15072,
72,4638,9441,14816,15325,1569,3550,2974,31,13085,2207,12958,2593,7583,15328,
73,4702,9313,14688,15517,2593,4318,3678,31,13341,3423,13982,4513,8351,15392,
74,4766,9505,14752,15581,3233,5918,4574,31,13917,5087,13662,4961,9823,15136,
75,4830,9633,14560,14941,1249,4510,4254,31,13661,3999,12126,2273,8095,14880,
76,4894,9697,14176,14684,16097,2334,3870,31,13341,2463,12190,545,5919,14944,
77,4958,9249,14176,15005,1249,3550,4766,31,13853,3743,13406,1441,6303,14944,
78,5022,9185,14432,15197,2337,6494,5598,31,14301,5535,13854,3041,7711,15200,
79,5086,9697,14304,14941,1441,6046,5406,31,14173,5535,13918,3809,8415,15456,
80,5150,9761,14240,14749,1249,4126,4446,31,13917,5087,14046,3873,8735,15712,
81,5214,10017,14432,14877,2273,3870,3550,31,13853,5279,14238,4641,9311,15904,
82,5278,9889,14240,14813,2913,4894,4062,31,14045,5791,14686,5793,10015,15648,
83,5342,9889,14368,15069,1889,5662,4958,31,14301,5023,13342,3937,8991,15264,
84,5406,9633,14560,14941,993,5214,5726,31,13725,2975,11102,737,7135,15072,
85,5470,9633,14368,14813,2081,5150,6430,31,13341,1823,10718,353,6879,14944,
86,5534,9185,13984,14557,2849,5598,6366,31,13469,2143,11934,1825,7711,15136,
87,5598,9569,14176,15069,1761,5214,5534,31,13725,3359,12702,2849,7967,15520,
88,5662,9185,14048,15197,1505,5086,5150,31,13725,4639,12318,3041,7967,15456,
89,5726,8929,13920,15133,2401,5022,4830,31,13725,4575,11870,2209,7583,15008,
90,5790,9057,14368,14941,2529,4574,4766,31,13725,4255,12126,1889,7647,15072,
91,5854,9569,14944,15069,2145,5150,5214,31,13917,4703,12830,2657,8095,15072,
92,5918,9249,14240,14941,1825,5086,5342,31,14109,5215,12830,2721,7775,15136,
93,5982,9185,13728,14941,1313,3614,5150,31,13853,4639,12126,1761,6431,15328,
94,6046,9697,14112,14941,1249,4126,5598,31,13725,4447,12382,1249,5343,15200,
95,6110,9633,14176,14877,1377,5534,6302,31,13661,4767,12638,1313,5087,15008,
96,6174,9441,14112,14813,929,4894,6814,31,13405,4639,11934,1185,4959,14944,
97,6238,9697,14560,14941,1313,4318,7006,31,13469,4511,11614,1505,5215,15072,
98,6302,10145,14688,15005,2209,4702,6366,31,14109,4511,11422,1889,5279,15264,
99,6366,9633,14240,14557,2081,4126,6046,31,13917,4383,11358,2017,5215,15328,
100,6430,9569,14112,14749,1313,3230,6046,31,13405,4191,11422,1825,5151,15072,
101,6494,9505,14240,14877,1505,3294,5918,31,13469,4511,11614,1697,5535,14944,
102,6558,9505,14176,15069,1953,3870,6110,31,13533,4703,11806,2017,6175,15072,
103,6622,9185,14176,15005,2337,4702,7326,31,13149,5023,12318,2785,6687,15328,
104,6686,9441,14496,14941,2401,4894,8350,31,13469,5407,12254,2785,6111,15584,
105,6750,9121,14432,14493,1953,4894,8478,31,13533,4959,11422,1633,4895,15136,
106,6814,9313,14560,14749,1889,5278,8926,31,13597,4511,11230,1185,4703,14624,
107,6878,9249,14304,14813,1825,4510,9118,31,14173,4575,11166,1249,4575,14944,
108,6942,9697,13728,15005,929,2846,7774,31,13917,3551,10590,33,3615,15072,
109,7006,9697,13664,15005,1057,3550,7134,31,13213,2591,10333,15905,3551,14944,
110,7070,9761,14048,15005,2273,5406,8286,31,13661,3871,10782,801,5151,15456,
111,7134,10081,14240,15069,2913,5150,8862,31,14237,5151,12062,2657,7135,15712,
112,7198,9953,14368,15261,3745,4126,7582,31,13661,5343,12702,3425,8095,15584,
113,7262,9697,14624,15261,4129,3038,6942,31,13533,5407,11998,2721,7903,15712,
114,7326,9505,14304,14941,3105,2142,7646,31,13917,5151,11742,2529,7455,15840,
115,7390,9761,14496,15005,2593,3102,7966,31,13917,5087,12254,3489,7327,15520,
116,7454,9569,14560,15005,3617,4958,8542,31,13725,5983,12446,4385,7455,15328,
117,7518,9633,14240,15069,3681,4894,9182,31,13597,5919,11742,3681,7007,15584,
118,7582,9441,14112,14877,2337,3742,8862,31,13341,4895,11486,2273,5727,15264,
119,7646,9505,14368,15069,1249,2654,8286,31,13021,3871,11294,801,3871,14688,
120,7710,9249,14368,14941,2145,3614,9182,31,12957,3743,11102,929,3679,14944,
121,7774,9505,14432,15133,3297,5342,9630,31,13597,4575,11550,2081,4959,15648,
122,7838,9377,14176,15005,2913,4830,9182,31,13789,5727,11614,2593,5343,15392,
123,7902,9377,14112,14877,2657,2654,9118,31,13213,5535,10974,2209,4703,14880,
124,7966,9185,14432,14621,3233,2590,9438,31,12957,4959,10590,1953,4191,14880,
125,8030,9761,14624,14813,3745,5150,10014,31,13661,5727,11422,2913,5023,15392,
126,8094,10145,14368,15005,4449,6878,10590,31,14237,6815,12574,4193,6751,15712,
127,8158,9889,14176,15261,4513,5534,10526,31,13917,6559,12446,4001,6879,15328,
244,15646,10017,14176,15133,4001,4766,10334,31,13789,5919,11806,3745,5599,15200,
0,30,10337,14112,14877,3809,5214,11038,31,13917,5983,10910,3873,5279,15584,
1,94,10273,14112,15133,3105,3038,11230,31,14109,6239,10270,2721,4831,15264,
2,158,9761,14368,15069,3553,2846,10590,31,13981,6879,11166,2465,5023,14944,
3,222,10017,14688,14877,4577,5406,10590,31,13917,6303,12254,4193,6751,15392,
4,286,9633,14432,14941,4001,5086,10718,31,13789,4639,10910,4001,6943,15520,
5,350,9697,14432,15261,3681,3614,10718,31,13853,4511,9246,1953,5151,15072,
6,414,9633,14432,15133,4897,5150,11486,31,13917,5599,10398,2145,5023,15072,
7,478,9569,14048,15261,4321,5214,11998,31,13661,5535,10974,2593,5599,15264,
8,542,9121,14176,15069,3937,3550,11678,31,13533,5919,10334,2657,5983,15264,
9,606,9697,14944,15133,6305,5022,11678,31,14045,7903,10782,4065,6943,15392,
10,670,9633,14688,15069,6945,6366,11870,31,14301,8351,11614,4513,7007,15264,
11,734,9377,14240,14813,5217,4766,11294,31,13981,7007,12062,3233,6111,15328,
12,798,9441,14304,14813,4833,3486,11358,31,13917,6815,11998,3425,6431,15712,
13,862,9953,14624,15261,6113,5342,12382,31,14237,8223,11934,5217,7711,15712,
14,926,10145,14624,15005,6497,6686,12574,31,14429,8991,12062,5921,8223,15712,
15,990,9953,14304,14685,5857,4766,12574,31,14173,7839,11806,5217,7583,15776,
16,1054,10017,14176,14877,5665,4190,12958,31,14109,6623,10718,3489,6559,15584,
17,1118,9825,14240,14813,5985,5854,13598,31,14365,7903,10846,3425,7007,15328,
18,1182,9889,14304,14813,6113,6302,13726,31,14621,9311,11678,4897,8223,15520,
19,1246,9633,14176,14621,6177,5918,13854,31,14237,8671,11422,4897,8095,15648,
20,1310,9889,14240,14749,6305,5790,13790,31,14237,8415,10910,2913,6367,15456,
21,1374,9761,14112,14813,6369,6302,14110,31,14365,8799,10654,1313,5279,15072,
22,1438,9761,14432,15005,5921,6366,14494,31,14365,8735,10462,1313,5407,15200,
23,1502,9377,14560,14941,6113,5342,14430,31,14429,9887,10910,2529,6047,15392,
24,1566,9633,14368,15133,6049,3934,13790,31,14685,10335,11102,2145,5727,15136,
25,1630,9569,14240,14941,5665,4894,13982,31,14429,8863,10782,1441,5151,15200,
26,1694,9569,14624,15133,6177,6110,14878,31,14301,8863,10910,2913,5791,15840,
27,1758,9633,14752,15261,7137,5598,14558,31,14493,10271,11230,4193,7135,15648,
28,1822,9761,14496,15261,7329,5214,13918,31,14493,10399,11294,4129,7903,15520,
29,1886,9441,14496,14877,7521,6430,14814,31,14557,11039,11806,5281,8159,16032,
30,1950,9633,14688,14493,7777,7326,15646,31,14813,11935,11806,5729,7839,15904,
31,2014,10017,14560,14557,7265,6430,15646,31,14685,11103,11422,4321,7071,15328,
32,2078,9825,14368,15069,7009,6238,16094,31,14301,10271,11934,4385,7071,15520,
33,2142,10017,14304,14941,7137,6558,16222,31,14365,10143,11614,5089,7263,15904,
34,2206,10081,14304,14365,7713,6622,15774,31,14749,10975,11038,4897,7839,15840,
35,2270,10081,14432,14877,8097,7518,15838,31,14941,12063,11614,5089,8479,15584,
36,2334,9889,14368,15005,7649,8158,16286,31,14813,12703,12766,5793,8479,15584,
37,2398,10017,14496,14749,7137,7390,16094,31,14941,12895,12894,6049,8287,15776,
38,2462,9313,14368,14493,7009,6366,16030,31,14749,12319,11934,4961,7839,15648,
39,2526,9441,14304,14813,6113,5598,16286,31,14493,10847,10462,2017,5663,15072,
40,2590,9633,14432,14813,5665,6495,478,31,14237,10143,9950,801,4959,15072,
41,2654,9697,14496,14877,6241,8095,862,31,14301,10335,10334,2849,7071,15520,
42,2718,9313,14112,14749,6561,7775,30,31,14301,9823,10462,4385,7775,15520,
43,2782,9505,14240,14941,7137,6750,15582,31,14493,10079,10910,4961,7775,15520,
44,2846,9697,14496,14941,8353,6046,15710,31,14813,12383,11998,6241,9375,15840,
45,2910,9889,14240,15005,8545,5790,15902,31,14877,14239,12126,6881,9823,15840,
46,2974,9953,13920,15197,8225,7326,16030,31,14941,14623,12062,6945,9183,15712,
47,3038,10081,14240,14941,8673,8542,16350,31,15005,14239,12510,7521,9823,15776,
48,3102,10273,14688,14813,9633,7774,16350,31,15133,13919,12830,8033,10335,15776,
49,3166,9953,14816,15197,10017,7519,94,31,15197,14687,12702,7905,9695,15712,
50,3230,9889,14624,15133,9505,7327,478,31,15197,15199,12254,6945,9183,15712,
51,3294,10081,14368,14621,9377,7583,734,31,14941,14431,12190,6561,9247,15712,
52,3358,10337,14432,15069,9825,9119,1438,31,14877,14047,12062,7137,9823,15712,
53,3422,9569,14432,15069,9441,8671,2142,31,14877,14815,11678,6113,9375,15520,
54,3486,9825,14368,14813,8097,6431,1502,31,14685,14303,11550,3873,7327,15328,
55,3550,10017,14240,14877,7905,6751,1374,31,14621,14239,11806,4321,6751,15520,
56,3614,9697,14240,15325,8545,7519,1758,31,14685,15199,11614,5281,8031,15712,
57,3678,8993,14112,14941,8993,7263,1758,31,15133,15711,12126,6497,9823,15968,
58,3742,9633,14432,14813,9825,7135,1566,31,15773,16031,13150,9249,11744,224,
59,3806,9953,14560,14813,10593,7519,1822,31,15774,223,12638,10465,12640,96,
60,3870,9953,14432,14877,10209,8287,2334,31,15518,31,11934,8929,11807,15904,
61,3934,10017,14368,14685,9633,7967,2462,31,15005,15199,11742,7329,10335,15904,
62,3998,10081,14368,14941,10849,6623,2398,31,14749,13855,11358,6689,9567,16096,
63,4062,9825,14304,15133,12961,7391,2590,31,14941,13471,10974,5601,9183,16032,
64,4126,9889,14368,14877,14177,9119,2334,31,14877,13791,10270,3809,9183,15712,
65,4190,10465,14368,14557,14177,8415,1438,31,14621,13535,9310,1953,8543,15392,
66,4254,10273,14304,14685,13985,7647,1758,31,14685,13407,9310,929,7327,15328,
67,4318,10081,14560,15069,13473,7775,2334,31,15069,13855,9630,289,6239,15584,
68,4382,9889,14560,14941,13025,7327,2014,31,14877,14175,9181,16353,5855,15456,
69,4446,9825,14432,14877,13793,8159,2398,31,14813,13983,9310,737,6367,15264,
70,4510,9569,14304,14813,14881,9887,3486,31,14941,14175,10334,1697,7263,15392,
71,4574,9825,14432,15069,14241,8735,3166,31,15133,14687,10654,2017,7647,15456,
72,4638,9505,14688,15069,13409,7455,2846,31,15197,15071,10590,2977,8159,15520,
73,4702,9761,14816,15133,13601,8607,3806,31,15517,14943,10526,3937,8415,15648,
74,4766,9441,14496,14621,13601,8543,4062,31,15645,14879,10334,3361,8031,15520,
75,4830,9441,14560,14429,13345,7967,3038,31,15261,14111,10398,2081,7199,15520,
76,4894,9761,14688,14557,13665,8863,2718,31,14749,13215,10398,1761,7071,15776,
77,4958,10273,14368,14813,13921,8863,3102,31,14749,13727,10142,2593,8031,15712,
78,5022,10209,14368,14813,14369,7967,2462,31,15133,13983,10782,3489,8863,15968,
79,5086,10529,14752,14941,14433,7711,1886,31,15133,13663,11294,3873,8608,32,
80,5150,10593,14752,15133,14241,8543,2590,31,15197,14815,10782,3297,8223,16096,
81,5214,10017,14560,15005,14817,9631,3358,31,15645,16159,10846,3489,8671,15648,
82,5278,10337,14880,15069,15009,9695,3294,31,16285,16031,11614,4513,8991,16096,
83,5342,10273,14496,14941,13985,8927,3038,31,15901,15967,11806,4065,8351,16224,
84,5406,10081,14112,15389,13857,8991,3166,31,15581,16159,11678,3297,7839,15904,
85,5470,9697,14368,15453,13985,9247,3422,31,15261,15327,11358,3361,7391,15776,
86,5534,9825,14624,15261,12897,7647,3166,31,15069,14559,10398,2465,6559,15840,
87,5598,9505,14240,14685,12833,7263,2910,31,15389,16031,10270,2401,7455,15904,
88,5662,9697,14368,14685,14113,8991,3550,31,15838,1119,11358,3873,8863,16352,
89,5726,9633,14752,14685,14049,9695,4126,31,15710,735,12062,4577,8864,352,
90,5790,9825,14752,14941,13153,8479,3678,31,15646,1055,11486,4321,8800,224,
91,5854,9697,14496,14941,14177,8415,3422,31,15582,1631,11038,4129,9439,16032,
92,5918,9697,14624,14877,15137,8799,3230,31,15581,16159,10910,3169,9055,15840,
93,5982,9953,14496,14941,14561,7391,2718,31,15773,15135,10590,3105,8543,16288,
94,6046,10401,14048,14941,14241,7455,2526,31,15517,15839,10270,3489,8928,32,
95,6110,10337,14176,14749,14369,9311,2782,31,14941,14687,9694,2465,8287,16096,
96,6174,10529,14688,14877,14049,8927,3550,31,15005,13663,9182,1633,7263,16032,
97,6238,10657,14752,14877,13857,7903,3422,31,15581,15327,9438,2145,7775,16032,
98,6302,10017,14560,14557,14177,9503,2782,31,15645,15839,9950,2657,8799,15648,
99,6366,9953,14688,14749,14113,10975,2910,31,15453,15135,9886,2465,8543,15648,
100,6430,10209,14496,15069,14049,10591,3550,31,15710,543,10142,2849,8415,16160,
101,6494,10337,14496,15197,13601,9503,3166,31,16286,1887,10462,2913,8351,15776,
102,6558,9633,14560,14749,13537,10015,3102,31,16286,1247,10782,2657,8415,15520,
103,6622,9825,14624,14941,14753,11935,4446,31,16094,1247,11294,3361,9568,224,
104,6686,9569,14560,15197,15009,12319,5406,31,16030,2015,10846,4641,10464,672,
105,6750,9569,14624,15325,13473,9951,5022,31,16222,1631,9822,5089,9823,15904,
106,6814,9441,14688,14813,12833,9311,4702,31,16030,735,10078,4257,8991,15392,
107,6878,9761,14816,14877,13281,10207,4894,31,15837,16223,10142,2785,8031,15712,
108,6942,9825,14624,15197,13345,9759,4318,31,15709,16031,9246,2465,7519,15712,
109,7006,9889,14624,15261,14625,10079,3550,31,16158,863,9758,4193,9247,16288,
110,7070,9697,14496,14941,15969,11679,3934,32,158,1951,10846,5665,11232,672,
111,7134,10145,14304,15069,15585,11807,4574,31,16350,2591,10398,5665,11424,544,
112,7198,10465,14496,15069,15201,11487,4574,31,16350,3231,10334,5729,11232,544,
113,7262,10209,14688,14621,14753,11103,4702,31,16222,2527,11102,5729,11232,288,
114,7326,10401,14560,14557,13729,8735,4190,31,16030,1823,10846,4897,10591,16352,
115,7390,10529,14304,14685,13537,8031,3998,31,15966,3167,10462,4385,10464,96,
116,7454,10593,14496,15005,14177,11167,4958,31,16222,3935,10910,4513,10592,32,
117,7518,10209,14624,14941,15073,12895,5214,32,30,3487,11422,5217,10655,16352,
118,7582,10465,14624,15069,15521,11487,4894,32,414,4127,11742,6305,11360,608,
119,7646,10081,14304,14877,15265,10911,5598,32,222,5599,12446,7329,12320,928,
120,7710,10145,14368,15069,14433,10655,5470,31,16350,5279,12446,6433,10912,416,
121,7774,9889,14432,14813,13793,8479,4446,32,158,4319,11742,5025,9120,352,
122,7838,9761,14624,14877,13345,7903,4510,32,222,4575,11742,5601,9952,736,
123,7902,9441,14688,14877,13729,10399,5022,31,16222,5087,11934,6753,11232,865,
124,7966,9953,14624,15005,13409,9887,4702,31,16222,4255,10846,5793,10080,736,
125,8030,10273,14432,14877,12321,7007,4958,31,16222,3167,9630,4257,8672,160,
126,8094,10081,14688,14685,12705,8479,5918,31,16286,2463,9758,3361,8799,16032,
127,8158,9825,14752,14877,13921,11871,6622,31,16350,1311,9566,2465,8927,15648,
244,15646,10209,14432,15069,13857,10783,6686,31,16222,991,9246,2401,8735,16096,
0,30,10593,14496,14685,13217,8991,6686,32,30,2079,10014,4001,9760,544,
1,94,10145,14688,14621,13537,9439,6110,32,542,2655,10526,5089,10784,416,
2,158,10209,14624,15133,13729,8479,4894,32,606,3679,10590,5153,10912,32,
3,222,10721,14624,14813,13921,8159,4510,32,350,5663,11742,6433,11232,481,
4,286,10849,15008,14493,14561,10527,4830,32,414,5599,12254,6561,11104,993,
5,350,9889,14752,14429,14753,11167,4894,32,286,4703,11230,5601,10784,481,
6,414,10081,14496,14749,13473,8671,4830,32,286,4895,10782,5281,10271,16352,
7,478,10081,14624,14621,12961,8543,5726,32,286,4959,11102,5409,9824,224,
8,542,10081,15072,14941,13729,11231,6942,32,286,4831,11038,5281,9760,800,
9,606,9505,14752,14813,13281,11487,7198,32,94,4511,10718,4897,9632,672,
10,670,9377,14496,14749,11681,9119,6046,32,30,3551,10270,3745,8544,32,
11,734,9761,14688,14685,11745,9439,5982,32,30,3551,10334,3297,8416,96,
12,798,10273,14816,15069,13153,10399,7262,32,158,4767,11102,5345,10208,800,
13,862,9953,14560,15005,13793,8735,6622,32,158,4767,10974,6177,11232,672,
14,926,10273,14560,14813,13217,8927,4894,31,16350,3999,10014,3553,9888,288,
15,990,10977,14880,14877,12129,11615,5214,32,30,4383,10206,2465,9056,480,
16,1054,10657,14816,14749,12129,11679,6750,32,414,5663,11934,6817,11680,1057,
17,1118,10465,14624,14941,12257,9503,6750,32,414,6047,12574,10657,14240,1185,
18,1182,10529,14624,15005,10785,8799,5918,32,222,5407,11806,10017,13984,993,
19,1246,10593,14944,14941,9377,8863,6174,32,542,5599,12062,10657,14944,1057,
20,1310,10529,14432,14813,8993,8799,6430,32,542,6367,13278,13666,864,1249,
21,1374,10721,14176,15325,8737,9375,6238,32,542,6303,12894,13922,800,1185,
22,1438,10209,14368,15069,9121,10591,6558,32,926,6687,12318,13089,16352,1121,
23,1502,10209,14496,15133,8737,10335,7262,32,862,6687,12638,12705,15648,1249,
24,1566,10017,14304,15005,8481,10015,7582,32,286,6367,12830,12513,15072,1376,
25,1630,10081,14688,14749,10017,11231,7646,32,606,6687,12318,12449,15200,1441,
26,1694,9825,14752,14749,9697,9439,7262,32,542,5983,11422,11745,14624,1184,
27,1758,10145,14560,15389,7841,6687,6622,32,158,5343,11166,11617,14176,928,
28,1822,10273,14560,15133,8993,8991,7006,32,734,6815,12510,13089,15520,1121,
29,1886,10209,14688,14621,10209,11167,7262,32,990,7263,12830,13025,15776,1057,
30,1950,10145,14688,14749,8865,9055,6366,32,350,5663,11614,11681,14176,800,
31,2014,10273,14688,15069,9185,8479,6302,32,606,6111,11870,12513,14304,1120,
32,2078,10209,14560,14685,10145,9823,7262,32,1182,6815,12382,12833,15200,1056,
33,2142,10145,14496,14493,9441,8991,7262,32,926,6111,12254,12065,15072,736,
34,2206,10593,14816,15005,9953,8671,6878,32,1054,7583,12958,13409,15264,1376,
35,2270,10529,14688,15133,11041,10079,7518,32,1182,9503,13534,14625,15840,1761,
36,2334,10657,14304,15133,9953,10335,8030,32,990,8287,13150,13985,15712,1248,
37,2398,10273,14560,15005,9057,9503,7838,32,798,7135,13342,14049,15712,1120,
38,2462,10337,15008,15133,9761,8927,7774,32,1118,7455,13278,13985,15392,1504,
39,2526,10017,14496,14813,10273,10143,8478,32,1374,7263,12574,12961,14880,1312,
40,2590,9889,14304,14685,10081,10975,8158,32,990,6559,12126,13217,15008,1120,
41,2654,9569,14496,14749,10465,10335,7262,32,414,6559,12382,13985,15008,1312,
42,2718,9953,14496,15261,10401,10271,6942,32,414,5599,12382,11873,13408,1056,
43,2782,10017,14368,14941,9825,10975,7006,32,350,4447,11678,10401,12704,928,
44,2846,10081,14368,14749,9633,10079,6494,32,414,5471,11550,12257,14496,1248,
45,2910,10145,14368,14749,9825,9247,5918,32,606,6879,12190,13409,15392,1376,
46,2974,10593,14624,14621,9377,10719,6430,32,606,6367,12126,11745,13984,1184,
47,3038,10785,14688,14621,8481,12127,7582,32,670,5855,11742,10977,13216,992,
48,3102,10657,14496,14877,8353,13151,8030,32,1054,6943,12382,12129,13856,928,
49,3166,10657,14432,15005,8737,14239,7646,32,1054,6687,12638,12065,13728,800,
50,3230,10273,14176,15005,7841,13535,7134,32,414,4575,11166,10465,12576,736,
51,3294,10209,14304,15133,7841,13151,6494,32,926,4127,10654,10337,12512,992,
52,3358,10209,14624,14877,10081,16095,6430,32,1438,5535,11934,12513,14560,1440,
53,3422,10401,14560,15069,8994,799,6558,32,798,5535,11934,12577,14560,1376,
54,3486,9953,14048,15005,6497,14751,5790,32,286,4831,11102,11041,12832,1120,
55,3550,10081,14112,15005,9569,15263,5534,32,1182,5919,11742,11553,13536,1440,
56,3614,9889,14560,15069,14306,2399,6622,32,1566,6559,12382,12065,15072,1440,
57,3678,10209,14944,15133,13666,1503,6046,32,862,4255,10654,8673,12768,736,
58,3742,10017,14880,14621,13473,16351,4830,32,670,3167,9694,6433,10848,480,
59,3806,10081,14944,14942,98,1503,5406,32,1182,4831,10910,6753,11872,928,
60,3870,10017,15008,15326,994,2719,6302,32,1438,6623,11870,6241,12256,928,
61,3934,10081,14944,15261,16290,2591,6430,32,1502,6751,11422,5857,11936,800,
62,3998,9697,14688,14877,15266,2207,6174,32,1438,5215,10846,6049,12000,864,
63,4062,10017,14752,14813,14690,2847,5662,32,1246,4703,11038,5793,11872,864,
64,4126,10593,15008,14877,14370,2463,5598,32,1054,4703,10718,5473,11360,736,
65,4190,10529,14880,14877,13730,1503,5214,32,862,3103,9950,5089,10656,736,
66,4254,10465,14880,14813,13154,1439,4254,32,350,1887,9950,4257,9952,928,
67,4318,10401,14752,14749,14370,2463,4830,32,286,3871,10526,4769,10464,992,
68,4382,10593,14560,14749,16290,3871,6558,32,1182,6431,11614,7073,12448,1184,
69,4446,10209,14368,14749,16226,4383,7006,32,1374,6815,12382,8161,13472,1376,
70,4510,10401,14624,15389,14754,2911,6174,32,990,5791,11486,6689,11936,1120,
71,4574,10017,14944,15261,14498,927,6046,32,1054,4959,10590,5985,11296,672,
72,4638,10081,15008,15069,15266,1567,6622,32,1374,5343,11038,7201,12576,928,
73,4702,10145,14624,14877,15522,2783,6686,32,1246,5791,11038,7713,13088,1056,
74,4766,10081,14496,15069,14946,671,5982,32,798,4191,10078,6433,12256,800,
75,4830,9697,14560,14941,14881,15199,5982,32,606,3039,9822,6113,11872,864,
76,4894,9889,14560,15069,14625,16159,6046,32,1118,4319,10334,6241,11296,1120,
77,4958,9889,14432,15005,13474,991,5150,32,1054,5599,10526,5537,10464,800,
78,5022,10273,14624,15069,13346,159,5214,32,670,5791,10526,5601,10656,800,
79,5086,10593,14624,15069,13793,14431,6174,32,1054,5151,10014,5665,10208,736,
80,5150,10337,14624,14877,13857,14175,5726,32,926,4255,9502,4833,9440,352,
81,5214,10401,15072,15005,14369,15967,4766,32,670,4063,9566,4897,10080,544,
82,5278,10785,15264,15005,15138,927,5278,32,1310,4959,10206,6625,11424,1120,
83,5342,10977,14880,15069,15009,15327,6110,32,1502,4895,10334,7457,12064,1056,
84,5406,10465,14368,15005,14177,11999,6046,32,478,3423,9246,5473,11424,800,
85,5470,10593,14752,15005,13729,12767,5982,32,222,2463,8414,3297,10528,864,
86,5534,10593,14752,14941,13473,15327,6878,32,350,2207,8350,2913,10272,544,
87,5598,10401,14624,15325,13601,15647,7390,32,478,2399,8990,3937,11040,544,
88,5662,9761,15008,15133,15201,14751,7134,32,1310,4063,10206,6561,13344,1120,
89,5726,10337,15392,14877,15073,13599,6878,32,1758,5983,10654,8161,14496,1249,
90,5790,10209,14944,14621,12641,13215,6814,32,1310,7199,10910,7969,13536,993,
91,5854,10017,15072,15197,13601,14111,6430,32,1374,7199,11230,8417,12960,1057,
92,5918,10209,15200,15134,609,14175,5342,32,1182,5727,10526,8097,12704,992,
93,5982,10401,14816,14749,15777,11615,4510,32,350,3615,9054,5153,10464,672,
94,6046,10017,14688,14493,13665,11039,5278,32,414,4511,9822,4513,9632,864,
95,6110,9953,15136,14941,15521,13343,6430,32,1118,6559,11038,7201,11104,1248,
96,6174,10337,15328,15326,33,14047,6110,32,1118,5983,10334,7585,11232,1376,
97,6238,10593,15008,15197,15585,13599,5854,32,1246,5151,10142,6497,10912,1376,
98,6302,10721,14752,15005,16225,14239,6494,32,1630,5919,10910,6881,11936,1120,
99,6366,10401,14752,15006,417,14303,6494,32,1374,6559,11102,7905,12640,992,
100,6430,10721,14944,15197,15521,13087,6174,32,1438,6687,10718,7905,12576,1248,
101,6494,10721,14880,14941,15073,14047,6878,32,1630,6943,10974,7585,13152,1312,
102,6558,10913,14944,15005,15713,15967,7262,32,1502,5791,11230,7713,13792,1056,
103,6622,10593,14816,15005,15713,15839,7070,32,1502,5023,11486,8289,13856,1248,
104,6686,10209,14624,14941,14625,15199,7006,32,1950,5983,11550,8033,13216,1376,
105,6750,9761,14624,14685,14306,159,6814,32,1694,6751,11358,7201,12832,992,
106,6814,10337,14880,14941,15010,1375,6622,32,1630,6431,11230,6945,12704,992,
107,6878,10017,14880,14749,14946,1055,7198,32,2014,6815,11166,7329,12512,1312,
108,6942,9889,14944,15005,14370,1439,7710,32,1950,7391,10974,7009,11936,1056,
109,7006,10401,14752,15133,13730,2591,7454,32,1566,6943,10654,6305,11232,800,
110,7070,10593,14688,15197,13346,2591,7326,32,1950,7135,11038,6625,11168,1184,
111,7134,10273,14880,15197,13666,1567,7134,32,2142,7711,11358,6881,11168,1376,
112,7198,10593,14816,15261,14050,1823,6302,32,1566,7007,10974,6177,10016,1056,
113,7262,10785,14624,15069,13602,2335,6430,32,1630,6431,10718,5921,9504,992,
114,7326,10401,14688,14621,12834,2143,7390,32,1886,6879,10910,6369,10464,992,
115,7390,10401,14880,14877,12450,2719,7646,32,1822,6751,10974,6497,10912,1120,
116,7454,10401,14496,15005,12642,3743,7390,32,1502,6239,11102,6753,10528,1312,
117,7518,10849,14624,14749,13282,4127,7518,32,1566,6687,11230,6625,10720,1376,
118,7582,10657,15008,14429,13794,3679,7646,32,1630,7199,11038,6241,11104,1376,
119,7646,10465,15008,15133,13090,2911,7134,32,1630,6687,11038,6561,11104,1440,
120,7710,10209,14560,15261,13346,3487,7326,32,1566,7007,11550,7521,11808,1632,
121,7774,10657,14688,14813,14498,4959,7518,32,1758,8287,11934,8161,12960,1568,
122,7838,10017,15072,14813,14370,5023,7070,32,1822,8479,11998,8737,13664,1568,
123,7902,10145,15264,15325,13858,3487,6558,32,1758,7455,12062,8993,14048,2016,
124,7966,10337,15200,14941,14370,3231,6750,32,1886,7455,12126,8673,14304,1953,
125,8030,10465,15200,14749,14946,4383,7134,32,2078,7647,11614,7905,14048,1440,
126,8094,10401,14752,14813,14626,4063,6750,32,2014,6559,10590,6945,13600,1312,
127,8158,10657,14368,14941,13026,2527,5854,32,1630,5535,10398,5857,12768,1312,
244,15646,10721,14624,14941,12258,2399,5406,32,1566,5599,10910,6049,12064,1056,
0,30,10593,14944,15069,14370,4255,6046,32,1758,5919,10782,6689,13024,1056,
1,94,11105,14880,15069,15906,5279,6558,32,2014,5855,10462,6049,13536,1376,
2,158,10913,14752,14941,15074,4767,6366,32,2206,6367,11358,6049,13024,1504,
3,222,10657,14880,15005,15202,4703,6046,32,2270,7071,12446,7777,13408,1632,
4,286,10529,14880,14685,15074,4639,5918,32,2014,6815,12190,8097,13792,1312,
5,350,10977,14944,14877,13282,4127,5790,32,1950,6239,11614,6497,12832,1184,
6,414,10657,14880,15069,14306,4767,6238,32,2270,7071,12190,7649,13792,1888,
7,478,10721,14944,15326,98,5599,6494,32,2334,8287,13150,10337,15968,2337,
8,542,10401,15008,14813,15842,5535,5918,32,2206,8095,12894,10145,16032,1889,
9,606,10337,15072,14877,14754,5087,5214,32,2206,7199,11422,7841,14624,1504,
10,670,10401,15072,15005,16034,5343,5342,32,2014,7071,11102,7905,14752,1696,
11,734,10785,15200,15198,290,4639,5534,32,1950,6687,11934,8929,15392,1760,
12,798,10273,14816,15261,14946,2847,5342,32,1822,5599,11678,8033,14112,1504,
13,862,10337,14688,15133,14242,3359,5790,32,1950,5983,11102,7521,13664,1568,
14,926,10785,15072,14941,15010,5151,6558,32,2334,7519,11166,8033,14944,1889,
15,990,10721,15136,15133,14434,4063,5854,32,2398,6943,10910,7585,14560,1825,
16,1054,10465,14688,15197,13282,2655,5278,32,2014,5407,10270,6497,12832,1504,
17,1118,10593,14752,14877,13858,3743,5918,32,1950,5407,10526,6049,12832,1440,
18,1182,10849,15264,14941,14242,3295,5598,32,2206,5919,10846,5921,13088,1504,
19,1246,10593,15008,15133,13986,2207,4702,32,1950,5855,10462,5921,12640,1504,
20,1310,10785,14816,15069,14306,3359,5150,32,2078,5471,10014,5665,12576,1312,
21,1374,10721,15008,14685,14498,4127,5982,32,2206,5983,10718,6113,12832,1632,
22,1438,10849,15200,14813,14306,3679,5534,32,2206,7391,11742,7777,13600,2144,
23,1502,10593,14944,14749,15010,2975,4830,32,1950,8031,11550,8673,14240,1760,
24,1566,10593,14880,14941,15650,2015,4638,32,2014,7135,11166,8545,14496,1952,
25,1630,10209,14944,14813,15650,3103,5342,32,2142,7199,11358,8673,15456,2593,
26,1694,10273,15008,15261,15714,5151,6494,32,2206,8735,11486,8993,16160,2465,
27,1758,10337,15072,15325,15650,4959,6814,32,2078,9247,11678,9953,15968,2337,
28,1822,10657,15200,15069,14626,2975,5982,32,2014,7135,11358,9889,14688,2465,
29,1886,10465,14944,14493,14050,2271,5726,32,2142,5343,10718,8545,13536,1760,
30,1950,10401,14816,14557,14626,3551,6622,32,2142,6175,10846,8737,13856,1568,
31,2014,10657,14944,14941,14754,4575,6494,32,2270,7775,11294,9825,14368,2080,
32,2078,10721,14944,14941,14626,4447,6238,32,2526,8223,11230,9377,13216,1824,
33,2142,10721,14880,15005,15138,4831,7070,32,2910,8543,11870,9121,12704,2016,
34,2206,10721,14816,15005,15266,4383,6942,32,2846,8927,12254,9953,13472,2080,
35,2270,10913,15008,15069,14370,2079,5982,32,2590,8159,11550,9697,12768,1824,
36,2334,10721,15200,15005,14370,2911,6366,32,2334,7519,11358,9569,12704,2208,
37,2398,10785,15456,14941,14306,3935,6110,32,2654,7455,11166,9825,13280,2144,
38,2462,10401,15264,14813,13730,2463,5278,32,2462,7519,10910,9761,13024,1760,
39,2526,10465,15136,15197,14434,2847,5854,32,2078,7199,11486,10465,13408,2144,
40,2590,9953,15136,14813,15458,3999,6494,32,2334,7455,12126,11617,14816,2593,
41,2654,10273,15136,14621,14754,2079,6174,32,2846,8287,11870,11489,15008,2593,
42,2718,10337,15072,14685,14114,1823,6558,32,2718,8863,11550,10849,14560,2336,
43,2782,10337,15136,15069,14626,3615,6814,32,2654,8287,11230,10337,14304,1952,
44,2846,10145,15008,14621,14562,1887,6430,32,2846,7327,10974,10209,14112,2080,
45,2910,10529,14816,14685,13729,16351,6302,32,2718,7455,11230,10657,14624,2273,
46,2974,10337,15072,15133,13282,1503,6302,32,2270,7327,11230,10081,14240,1441,
47,3038,10337,15264,15261,13410,2911,6430,32,2270,6367,10590,8225,12768,1248,
48,3102,10657,14880,14813,13794,2911,7070,32,2526,6111,10398,7457,12448,2016,
49,3166,10785,14560,14749,13282,2463,7134,32,2142,5279,10014,6817,11936,1888,
50,3230,10849,14688,15133,11874,671,6430,32,1630,4127,9118,5857,10784,1440,
51,3294,10593,14880,14941,11361,15135,5918,32,1950,5023,9374,6945,11680,2080,
52,3358,10657,14880,15133,11425,15007,5086,32,2526,6559,10398,9057,13280,2656,
53,3422,10593,14624,15069,12001,15583,4702,32,2718,7263,11422,10401,14240,2593,
54,3486,10849,15072,15069,13346,95,5726,32,3102,8031,11998,11553,15456,2721,
55,3550,10401,15264,15261,14050,1631,6622,32,3038,7775,11550,12129,15840,2785,
56,3614,10529,15008,15453,13858,991,6046,32,2782,6367,10974,11937,15456,2721,
57,3678,10337,15136,15005,13985,15903,5726,32,3038,6559,12062,12769,16160,2913,
58,3742,10529,15584,15069,14050,543,6046,32,3166,7327,12446,12834,32,2657,
59,3806,10209,15200,15133,14050,2079,6430,32,2590,6751,10910,10849,14944,2209,
60,3870,10465,14880,15261,14562,1951,6814,32,2398,6751,10654,10529,14368,2721,
61,3934,10721,15072,14749,14818,1375,6942,32,2654,7583,11486,11105,14688,2913,
62,3998,10785,15008,14621,13602,95,6046,32,2462,7583,10782,9569,12896,2144,
63,4062,10593,14624,14877,12577,16031,5470,32,2334,7775,10526,8801,11488,1952,
64,4126,10657,15008,15069,13794,1503,5790,32,2782,8543,11934,10977,13216,2528,
65,4190,10721,15328,14749,15458,2975,5726,32,3038,7967,12382,12065,15008,2721,
66,4254,10721,15008,14685,15010,2143,4830,32,2718,6495,11486,11297,14496,2721,
67,4318,10977,14880,15005,13282,671,4446,32,2270,5727,10782,10721,13408,2785,
68,4382,10785,14944,14557,12258,31,5150,32,2014,5663,10014,9313,12512,2592,
69,4446,10849,15072,14813,11938,927,5790,32,2526,6175,10014,8609,12832,2528,
70,4510,10721,14880,15325,12514,1951,5534,32,2654,6943,11102,11297,15328,2977,
71,4574,10913,14880,15453,12962,1183,4766,32,2526,6879,11166,13666,544,3425,
72,4638,10593,15008,14813,12514,1055,5470,32,3294,7647,11166,14562,1696,3105,
73,4702,10657,15328,14877,12322,2015,6814,32,4126,8991,12190,15586,3104,2977,
74,4766,10273,15072,14877,12834,2335,6814,32,3422,8607,12062,15202,2656,2977,
75,4830,10273,14880,14941,12130,1887,5534,32,3230,6943,10526,12834,800,2593,
76,4894,10465,14880,15069,11298,1695,5342,32,3486,5791,10078,11873,16288,2529,
77,4958,10849,14752,15005,11682,1695,5726,32,2974,5343,10398,11745,15840,2913,
78,5022,10465,14816,14685,11746,1567,5534,32,2590,5279,10334,11041,15392,2721,
79,5086,10465,15200,15133,11042,607,5342,32,2846,5663,10398,10977,15456,2465,
80,5150,10913,15136,15389,11234,415,5342,32,2974,6239,10782,11617,15584,2849,
81,5214,10913,15072,14813,12002,2207,5662,32,2910,6687,11038,13026,96,3233,
82,5278,10785,15264,14557,11106,2271,5662,32,3038,6559,10974,13858,160,2977,
83,5342,10785,15136,14941,10018,351,5470,32,2782,6431,10654,13025,15520,2785,
84,5406,10913,15136,15133,10530,671,5726,32,3102,6623,10654,12385,15520,2977,
85,5470,10401,15136,14685,10850,991,6174,32,3294,6111,10718,12449,15712,2913,
86,5534,10337,15200,15005,10081,15135,5342,32,3166,4895,10462,11745,14816,2401,
87,5598,10209,15136,15133,10209,15327,4958,32,3038,5727,10782,11873,14752,2337,
88,5662,10465,15136,15069,10722,1439,6046,32,3422,7519,11294,12641,15200,3041,
89,5726,10401,14880,14749,10082,991,6238,32,3422,7263,10974,11745,14432,3105,
90,5790,10785,14944,15133,9441,15583,5086,32,3358,6047,10526,10593,13088,2656,
91,5854,10593,15072,15197,9953,16095,4766,32,3422,6367,10718,11105,13088,2592,
92,5918,10401,15200,15261,10017,15647,5214,32,3294,6559,10590,11233,13280,2656,
93,5982,10337,15136,14941,9569,14047,5534,32,2718,5471,10334,10465,13472,2464,
94,6046,10657,15008,14813,9889,13983,5022,32,2718,5023,10718,10977,14240,2657,
95,6110,10465,14816,15069,10401,14559,4190,32,3294,6303,11102,12129,15328,2849,
96,6174,10529,14944,15005,10977,15071,4382,32,3486,7455,11294,12770,32,2849,
97,6238,10785,15200,14877,11553,15263,4830,32,3422,6879,11422,13090,672,3105,
98,6302,10849,15264,15069,11425,15007,4766,32,3550,6239,11486,13026,800,3297,
99,6366,10977,15008,15133,10593,14751,4830,32,3422,6623,11038,12898,672,3297,
100,6430,10465,14880,15069,10209,14495,5470,32,2910,6751,10846,13346,992,3297,
101,6494,10529,15200,15389,10529,14815,5918,32,3038,6559,11166,13410,1440,3233,
102,6558,10977,15008,15325,11233,15839,5918,32,3294,6303,10910,12898,864,3233,
103,6622,11361,14944,15069,11809,16223,5790,32,3294,6047,10782,13090,480,3169,
104,6686,10593,15136,15069,12258,735,6430,32,3742,7455,11934,14178,1248,3233,
105,6750,10593,15392,15197,12450,1759,6750,32,4126,9247,12638,14242,1696,3233,
106,6814,10529,15200,14621,11746,159,5726,32,3486,8927,11742,13154,800,2785,
107,6878,10337,15200,14813,10145,14943,5022,32,3294,7263,10718,11937,15584,2593,
108,6942,9953,15328,15005,9697,15519,5086,32,3614,6687,10590,11297,14880,2785,
109,7006,10337,15264,15197,9953,14111,4190,32,3166,5727,10078,10209,14304,2401,
110,7070,10465,14880,15069,9889,12191,3166,32,2782,4703,9758,9889,14240,2272,
111,7134,10593,14816,15005,10145,13983,3614,32,3166,5471,10846,11745,15840,3169,
112,7198,10785,15072,15005,10977,15839,4638,32,3230,6239,11614,13090,864,3361,
113,7262,10977,15328,15133,10977,15391,4830,32,2974,5599,10398,12065,16224,3041,
114,7326,11041,15200,15197,10401,15263,4638,32,3038,5023,9310,10593,14688,3041,
115,7390,10785,14880,14813,9889,14303,3806,32,2718,4575,9694,9889,13920,2721,
116,7454,10849,15072,14941,9377,12191,2910,32,2398,3167,9246,9185,12512,2336,
117,7518,10721,15328,15389,9313,13151,3678,32,2398,3359,8798,9505,12256,2528,
118,7582,11041,15328,15197,9697,15327,4894,32,2782,4255,9182,9825,13408,2656,
119,7646,10465,14944,14685,9633,14815,4382,32,2590,2975,8926,9249,13216,2336,
120,7710,10401,15200,15197,8673,12703,2334,32,2078,1055,8030,8097,11872,2336,
121,7774,10273,15136,15389,8289,12319,1502,32,1630,1439,8030,7393,11680,2400,
122,7838,10401,14944,15261,8801,13343,2718,32,2142,3039,9118,8225,12576,2656,
123,7902,10081,14880,14813,8609,13407,3166,32,2334,3999,9822,9633,13280,2848,
124,7966,10401,15136,15005,8033,12575,2078,32,2334,3999,9246,9633,12896,2912,
125,8030,10465,15008,14941,8481,12767,2398,32,2846,4639,8798,8929,12448,2848,
126,8094,10785,14560,15005,8161,12447,3806,32,3038,5215,8990,8673,12640,2721,
127,8158,10465,14560,14749,7585,11871,3486,32,2462,4639,9310,9121,13280,2593,
244,15646,10337,15200,14941,8801,13919,3550,32,2334,4511,9950,10401,13728,2785,
0,30,10593,15392,15453,9377,15647,4638,32,2718,4767,10142,10401,12896,2977,
1,94,10785,14880,15453,7777,14751,4446,32,2590,4255,9374,8801,11232,2592,
2,158,10913,14624,15005,6497,12767,3422,32,2078,3103,8478,7585,9952,2528,
3,222,10785,14752,14813,5985,11551,2782,32,1822,1951,7518,6625,8416,2336,
4,286,10977,14688,15197,6369,12447,2334,32,2142,1887,7518,5857,7456,1824,
5,350,10849,14688,15069,8225,14367,2526,32,2462,3807,8798,7201,9056,2208,
6,414,11169,14816,14813,8481,13855,2718,32,2270,4383,9310,8865,10656,2784,
7,478,10657,14688,14813,7585,12895,2974,32,2206,3039,8798,9057,11168,2656,
8,542,10657,14816,15389,7905,13279,3230,32,2398,2847,8798,8737,12000,2528,
9,606,10337,14880,15197,8865,13471,3294,32,2398,3743,9182,9057,12896,2592,
10,670,10401,15136,14941,8737,13407,3038,32,2590,3615,9054,9313,12768,2657,
11,734,10337,15200,14941,8481,13727,3422,32,2398,3551,9246,9889,13088,2849,
12,798,10593,15136,15133,9185,14111,3614,32,2206,3551,9374,9825,13664,2977,
13,862,10337,14880,14621,9825,13919,3870,32,2334,2271,8478,8481,12896,2593,
14,926,10337,15008,14685,9505,14239,5022,32,2078,799,7326,7265,11680,2080,
15,990,10657,14752,14813,8609,15775,5982,32,1694,607,7198,6881,10976,1888,
16,1054,10785,14624,14877,8354,415,5406,32,2014,1567,8030,7137,11168,2464,
17,1118,10657,15008,14813,8673,15647,3678,32,2398,2975,8798,8417,12000,2784,
18,1182,10657,14944,15005,8865,13023,2462,32,2206,3679,9182,10017,12320,2464,
19,1246,10913,14688,15261,9377,12575,2078,32,2206,3807,9502,10529,12320,2720,
20,1310,10721,14816,14813,10657,15263,2526,32,2718,5279,10270,11297,13728,3297,
21,1374,11105,15008,15005,11169,16031,3102,32,3294,6431,10718,12193,14816,3233,
22,1438,10977,14752,15389,10465,14175,3102,32,2846,5407,10270,12001,14560,2913,
23,1502,10977,14752,15069,10081,13599,2590,32,2398,4191,9566,11233,14816,2913,
24,1566,10465,14880,14301,9825,12383,1566,32,2398,3295,8862,10401,15008,2721,
25,1630,10401,15072,14749,9185,10719,990,32,2398,2655,8926,10721,14816,2785,
26,1694,10145,15200,15069,10017,13279,1822,32,2526,3679,9822,12193,15648,3105,
27,1758,10529,15328,15005,10721,14495,2526,32,2782,4063,9694,11809,15712,3041,
28,1822,10209,15072,14877,9889,12127,2334,32,2462,3167,8798,10081,14624,2721,
29,1886,10273,15008,15005,9313,12511,2078,32,2398,2911,8606,9697,14304,2657,
30,1950,10657,15136,14813,9633,14239,2462,32,2654,3807,8798,9633,14368,2657,
31,2014,10785,15072,14749,9313,12703,2462,32,2526,4191,8670,8865,13664,2400,
32,2078,10721,14944,14557,7905,10975,1502,32,2206,3743,8478,7969,12640,1952,
33,2142,10785,15136,14749,7777,11999,1182,32,2398,3359,8222,7713,12640,2080,
34,2206,10913,15200,15197,9441,13407,2014,32,2846,3295,8670,8801,13920,2785,
35,2270,10593,14944,15005,10593,13471,2718,32,2846,3615,9566,10401,15392,3105,
36,2334,10977,15008,14685,10273,13727,2654,32,2718,4191,9566,10785,15712,3041,
37,2398,10977,15136,14685,10401,14367,2782,32,2462,4575,9374,10913,15520,2977,
38,2462,10657,14944,15069,10337,13151,2590,32,2334,3359,9118,10273,14624,3041,
39,2526,10081,14816,14813,9377,12383,2782,32,2206,3231,8798,9569,13984,2848,
40,2590,10593,15264,14941,9185,13983,3486,32,2334,4575,8926,9569,14560,2720,
41,2654,10529,15200,15069,9825,14431,3550,32,1950,3743,8926,9313,14240,2464,
42,2718,10337,14880,15389,8737,11807,2782,32,1758,2015,8158,8417,12384,2016,
43,2782,10081,14944,15005,7521,11615,2782,32,2462,3487,8158,8929,12192,2336,
44,2846,10529,15392,15005,8929,14495,3550,32,3038,5855,9566,10593,13856,2912,
45,2910,10657,15200,15069,10465,15263,3998,32,2782,5471,10078,10721,14240,2848,
46,2974,10849,14880,15069,9249,13535,3678,32,2910,4447,8926,8993,12576,2464,
47,3038,10785,15008,15069,8545,13535,3806,32,2974,4255,8606,8289,11552,2528,
48,3102,10849,15328,15133,9313,13727,3998,32,2334,3487,9118,9057,11936,2784,
49,3166,10849,15008,14877,9121,12127,3550,32,2270,2271,8926,9505,12384,2784,
50,3230,10593,14752,14813,9249,12959,3806,32,2782,2591,8862,9377,12768,2720,
51,3294,10913,15136,14941,9825,13855,3934,32,2590,3231,9438,9825,13024,2657,
52,3358,10913,15264,14749,9825,12447,2974,32,2142,3167,9950,11233,13856,3041,
53,3422,10785,15328,14813,10785,13215,2334,32,2910,4319,10718,12897,15904,3361,
54,3486,10529,15264,14941,12129,15711,2526,32,3550,6239,11422,13666,992,3297,
55,3550,10913,15072,14941,10977,14623,2078,32,3038,5535,10846,12514,160,3361,
56,3614,10337,15008,14685,9825,13087,2206,32,2718,4063,10206,11937,15840,3297,
57,3678,10529,15136,14941,10529,13727,2910,32,3486,4511,10590,12449,16352,3169,
58,3742,10593,15072,14749,10529,13407,2846,32,3550,4767,10462,11937,15584,3041,
59,3806,10401,15136,15005,8993,11871,2590,32,2654,3103,9310,9505,13472,2849,
60,3870,10081,15136,15005,7905,11551,2718,32,2142,2015,8734,8225,12256,2464,
61,3934,10529,15072,14877,7905,11999,2142,32,2398,1951,8670,8033,11872,2464,
62,3998,10465,14880,14749,7521,11551,1374,32,2142,2079,8414,7265,11232,2720,
63,4062,10529,14688,15069,7009,10719,1822,32,2078,3103,8990,7265,11360,2592,
64,4126,10721,14880,15197,7841,11487,2206,32,2590,4319,9950,8225,12256,2720,
65,4190,10593,15072,15197,8673,12831,1758,32,2910,4959,10398,9761,13280,3297,
66,4254,10721,14880,15261,8161,12127,1630,32,2910,5407,10270,10849,14240,3617,
67,4318,10977,14880,15069,8225,10783,2142,32,2718,5151,10142,11233,14816,3233,
68,4382,11105,15072,14941,8417,10527,2078,32,2718,3615,9566,10785,14624,2977,
69,4446,10657,14688,14749,7777,11103,1694,32,2782,3167,9118,10209,14560,3041,
70,4510,10785,14880,14877,7969,11999,1822,32,2782,3359,9182,9889,14432,3041,
71,4574,10465,15136,15005,8609,12511,2078,32,2526,2591,8990,9761,13856,2976,
72,4638,10593,15072,15261,7585,11359,1694,32,2526,2271,8414,9697,13472,2976,
73,4702,10593,15136,15325,7457,10783,1502,32,2206,1887,7838,8929,13344,2912,
74,4766,10785,15264,15389,8353,11103,1374,32,1949,16223,6750,7073,12768,2784,
75,4830,10209,14944,14813,8545,10783,1054,32,2013,15711,6366,6177,12448,2656,
76,4894,10273,15008,14749,8097,10463,926,32,2142,1823,7518,7009,12064,2720,
77,4958,10401,15008,14813,7649,10847,1310,32,1886,2847,7902,6945,11040,2784,
78,5022,10849,14816,14813,8097,10975,2142,32,2270,2143,7646,6497,10976,2720,
79,5086,10721,14816,14493,9057,10847,2462,32,3038,4063,8926,8417,12704,2976,
80,5150,10721,15008,14813,9057,11039,1822,32,2782,5855,10078,9505,13664,3168,
81,5214,10977,15008,15133,8417,10975,1630,32,2206,3871,9374,8225,12960,3104,
82,5278,10977,14944,15133,8609,11295,1822,32,2398,1631,8606,7969,12256,3104,
83,5342,11169,15200,15005,8289,11039,1310,32,2462,2015,8158,8033,11872,2848,
84,5406,11169,15264,14877,7073,8607,990,32,1758,2271,7582,6945,11360,2720,
85,5470,11041,15136,15453,7393,8607,1246,32,2014,1439,7710,6881,11360,2912,
86,5534,10593,15136,15453,9057,12383,1758,32,2590,1759,8350,7969,12448,2912,
87,5598,10849,15456,15069,9889,14495,2334,32,2526,2847,8670,8545,13344,2912,
88,5662,10465,15200,14877,9377,13023,2462,32,2270,2655,8478,8353,12896,3104,
89,5726,10465,15072,15325,8225,10399,1566,32,2398,1887,8030,8161,12256,2912,
90,5790,10273,15008,15069,8289,10719,2142,32,2334,2783,8478,9185,13088,2912,
91,5854,10337,15136,14749,9505,13727,3550,32,2526,3551,8606,9697,13600,3360,
92,5918,10209,15072,14621,9889,14623,3358,32,2398,2271,7710,8033,12320,3168,
93,5982,10465,14752,15069,8033,11679,2462,32,1886,1183,7006,6177,10208,2592,
94,6046,10593,14816,15005,7521,10591,2270,32,2078,2015,7902,6561,9824,2784,
95,6110,10849,15200,14621,9825,12127,2334,32,2654,3487,8926,8353,11872,3104,
96,6174,10849,15072,14685,10273,11551,2206,32,2654,4063,8926,9249,12960,3040,
97,6238,10849,14688,15069,8097,9631,1566,32,2526,3231,8414,8737,11552,2912,
98,6302,10977,14944,15069,7777,9247,1438,32,2590,2015,7774,7329,10976,2912,
99,6366,10785,15328,15133,9505,10079,2334,32,2462,2335,7710,7137,12320,2913,
100,6430,10977,15200,15197,9185,10783,2398,32,2526,3039,8350,8993,13664,3105,
101,6494,11169,14944,14813,8161,11743,1950,32,2910,3551,8798,10977,14304,3233,
102,6558,10977,15008,15069,9249,12639,2910,32,3038,3103,8542,10465,13664,3105,
103,6622,10593,15392,15261,10017,11423,3806,32,2334,1759,8030,8545,12448,3040,
104,6686,11233,15520,15389,8737,9695,2398,32,2078,1631,7902,7841,12064,2912,
105,6750,10721,14944,15069,7841,9375,1566,32,2462,3103,8606,8737,12768,2720,
106,6814,10465,14816,15005,8481,9631,2590,32,2590,2975,8862,8673,12768,2848,
107,6878,10593,15008,14877,9185,10975,3486,32,2078,1119,7518,6689,11232,2592,
108,6942,10657,15264,15197,8289,11295,3294,32,1886,31,5854,3937,8992,2016,
109,7006,10081,15200,15005,7585,10719,3806,32,1950,991,6110,4001,9312,2208,
110,7070,10785,15200,14813,8225,10847,4126,32,2206,2399,7390,6177,10912,2784,
111,7134,10849,14816,14813,8353,9823,2718,32,2462,2719,8222,6753,10528,2912,
112,7198,10465,14880,15005,8225,9055,2078,32,2526,3039,8734,7137,10656,2912,
113,7262,10785,15328,14813,8929,9695,2782,32,2398,3551,8926,8993,12704,3168,
114,7326,10913,15264,14877,9057,8863,2590,32,2398,3167,8606,10017,13856,3104,
115,7390,10785,14944,15197,8417,7903,2014,32,2590,2591,8542,9889,14112,3104,
116,7454,10721,15136,14941,8097,9759,2526,32,2590,2719,8542,10273,15264,3425,
117,7518,10977,15456,14813,7905,9631,2334,32,2398,2719,7774,10401,15776,3425,
118,7582,10593,15264,15069,8673,8031,1950,32,2270,2719,7646,10721,15840,3297,
119,7646,10977,15200,15197,9313,9823,3102,32,2910,3551,8478,11681,16096,3297,
120,7710,11105,15136,14813,8609,11359,4190,32,3038,4319,8798,11617,15648,3233,
121,7774,10977,15200,15133,7969,10079,3486,32,2718,3935,8350,10593,14560,3169,
122,7838,10273,15072,15069,8353,10463,2846,32,2974,3999,8606,10337,14368,3297,
123,7902,10657,15200,15325,8097,11807,3294,32,3294,4575,8670,10337,13728,3297,
124,7966,10657,15264,15133,7841,11551,3358,32,2910,3807,8094,10017,12512,2976,
125,8030,10657,15264,14749,8097,11551,2974,32,2846,2591,7966,9697,12832,3040,
126,8094,10593,14944,14813,7905,13023,3294,32,3038,3231,8542,10017,14112,3296,
127,8158,10785,14880,15325,7969,13215,2846,32,2846,3615,8606,10145,13856,3104,
244,15646,10721,14944,15069,7905,11871,2398,32,2718,2527,8286,8929,12384,2784,
0,30,10785,14816,14749,6817,11295,2846,32,2654,2079,8478,9249,12832,3296,
1,94,10913,14880,15133,6817,12255,2462,32,2846,3039,8990,11681,15072,3617,
2,158,11105,15264,15197,8929,13983,2206,32,3294,4447,9438,13090,32,3489,
3,222,11361,15072,15005,8801,13215,3230,32,3358,4511,9246,11809,15584,3425,
4,286,10849,14496,15005,6177,10655,3486,32,2590,3551,8286,9953,14432,3296,
5,350,11041,14688,14941,6049,11487,2782,32,2590,2975,8158,9633,14240,3232,
6,414,11041,14688,15005,7201,14175,2974,32,2782,2975,8478,9121,13472,3040,
7,478,11105,14304,15517,5985,13471,2910,32,2590,1823,6942,6625,11360,2720,
8,542,10529,14432,15005,5025,11999,2398,32,2462,863,5918,4961,10464,2528,
9,606,10401,15008,14621,5921,12383,2526,32,2846,1439,7454,6369,11616,2656,
10,670,10145,14944,14813,5601,11487,2398,32,2718,1567,8286,7905,12448,2784,
11,734,10337,14880,15133,4321,9759,1438,32,2270,1247,7454,7649,11616,2976,
12,798,10209,15136,14621,5537,11295,1502,32,2718,2463,7966,8097,11488,3296,
13,862,10529,15456,14877,7457,14047,2718,32,3550,3935,9310,9057,12640,3232,
14,926,10721,15264,15069,7265,14175,3294,32,3358,3167,9054,9185,13216,3104,
15,990,10721,14752,15197,5281,11039,2718,32,2654,1631,7966,8289,11936,3104,
16,1054,10721,14752,15261,4577,9311,2270,32,2846,1759,7710,8097,10976,3168,
17,1118,10849,14880,15133,5089,10591,2014,32,3102,1759,7710,8481,11296,3040,
18,1182,10977,14816,15005,4961,10847,1502,32,2526,415,7006,7393,10400,2976,
19,1246,11105,14752,14877,5025,10271,1566,32,2462,799,7198,6369,9632,3040,
20,1310,11041,14816,15069,5601,10847,1886,32,3102,2527,7902,6497,10528,2976,
21,1374,10721,14816,15133,5985,11231,1694,32,2974,2783,7710,6433,10400,2912,
22,1438,10913,15072,14941,5153,10463,1374,32,2654,2015,7198,6497,9568,3104,
23,1502,10529,15136,14941,5665,10975,1310,32,2590,1951,7646,8161,11040,3104,
24,1566,10529,15264,15325,7137,10975,670,32,2526,1439,7518,8225,11424,2912,
25,1630,10529,15200,14749,7137,9695,606,32,2334,607,7070,6625,9952,2912,
26,1694,10785,14944,14749,6369,10079,1438,32,2654,735,7582,6817,10272,2976,
27,1758,10081,14816,14685,7137,11103,2014,32,2910,1311,7902,8289,11808,2784,
28,1822,10337,15008,14749,8161,10719,1694,32,2846,735,7134,8161,12128,2784,
29,1886,10593,14944,14877,7137,9055,926,32,2525,15647,6558,7009,11360,2784,
30,1950,10593,15008,15389,6049,7391,926,32,2525,15583,6942,7137,11424,2912,
31,2014,10529,15072,14749,6497,7839,926,32,2782,735,7838,8673,12320,3296,
32,2078,10657,15136,14621,7777,9695,798,32,2974,991,8094,9569,12896,3360,
33,2142,10401,15136,15197,9185,10591,1566,32,3102,415,8030,9377,13280,3104,
34,2206,10465,15072,15197,9313,9887,2142,32,3102,1055,7966,9057,13728,3232,
35,2270,11169,15072,15069,8545,9247,1630,32,3166,2079,8350,9569,13536,3232,
36,2334,10977,15008,14941,7969,9119,2014,32,3166,2015,8350,9441,12448,2976,
37,2398,10849,15008,14813,7329,9567,3294,32,3038,1439,7838,7713,11168,2976,
38,2462,10785,14944,14685,7073,10015,3230,32,2974,1759,7966,7393,10912,3168,
39,2526,10785,14944,15005,6113,7711,2142,32,3358,1887,8094,8289,11616,3168,
40,2590,10209,14816,15069,5665,6495,2206,32,3294,2079,8094,8545,12448,3040,
41,2654,10593,15200,15389,6817,8799,3102,32,3550,2463,8670,8609,12832,3040,
42,2718,10529,15136,15133,7649,10463,3358,32,3486,2271,9182,9249,13472,3232,
43,2782,10465,15072,14813,6561,8031,2398,32,2910,1695,8222,8609,13024,3168,
44,2846,10337,15136,14621,5921,5663,2206,32,2654,1759,7326,7585,11936,2912,
45,2910,10721,15392,14813,6881,7263,2782,32,2974,1567,7902,8033,12064,2976,
46,2974,10657,15328,14685,6817,8479,2398,32,3102,799,8030,7969,12640,3232,
47,3038,10785,14944,14749,5921,6815,1374,32,3102,1119,7454,7265,12896,3168,
48,3102,10913,14880,14749,6113,4895,1246,32,3294,1759,7006,7265,13024,2976,
49,3166,10849,15264,14941,6945,5727,2270,32,3486,2015,7518,7521,13152,3040,
50,3230,11169,15392,15005,7009,7199,2718,32,3934,2335,8030,7457,13216,3040,
51,3294,11361,14816,14941,5921,6687,2526,32,3934,2079,7966,7393,12960,2913,
52,3358,11233,14816,15325,4961,4959,2526,32,3806,1503,7582,7137,12576,2913,
53,3422,10785,15264,15325,5217,3807,2142,32,3742,1631,7518,6689,12256,3104,
54,3486,11105,15328,15133,6561,5407,1694,32,3934,1759,7646,6753,12384,3360,
55,3550,10913,15072,14877,7585,6815,1886,32,3550,1695,7582,7265,12896,3360,
56,3614,10849,15072,15005,6881,4831,1758,32,3038,1247,7326,7265,13088,3168,
57,3678,10657,15008,14749,5729,3679,1246,32,2718,1055,7134,7393,12896,3040,
58,3742,10721,14944,15005,5665,4319,862,32,2974,1887,7390,7905,12704,3040,
59,3806,10273,14944,15133,6113,3679,862,32,3230,3039,7966,8609,12896,3232,
60,3870,10465,15008,15133,6305,3295,1054,32,3422,3039,8094,8545,12896,3424,
61,3934,10401,14816,15005,6561,5343,1758,32,3486,2271,8094,8353,13088,3296,
62,3998,10529,14944,15133,5089,5343,2014,32,3550,2399,7710,7329,12576,2912,
63,4062,11041,15136,15133,4385,3487,1822,32,3166,2847,7198,6305,11552,2912,
64,4126,11169,15008,14941,7137,4511,2142,32,2782,2399,7582,7265,11808,3168,
65,4190,10785,14880,14877,9313,5791,2782,32,3294,1567,8158,7969,12064,3040,
66,4254,10785,15072,15005,9377,5791,2462,32,3358,1567,7582,6497,10976,2784,
67,4318,11105,15136,15005,10273,6367,1822,32,2974,2079,7198,5409,10336,2784,
68,4382,10849,15008,14621,10593,5599,2526,32,3038,2207,7262,5153,10336,2720,
69,4446,11041,15072,14685,8673,5023,3678,32,2846,1311,6174,2721,8672,2528,
70,4510,10977,14944,14685,7649,7711,4126,32,2141,16031,4701,16353,6816,2400,
71,4574,10849,15072,14941,7521,8159,3166,32,2333,14815,4509,16097,6688,2528,
72,4638,10785,15328,14749,7777,5279,2078,32,2333,15775,5726,1569,7904,2784,
73,4702,11169,15456,15069,9057,4447,1694,32,2334,1503,7198,3873,9824,3040,
74,4766,10721,15392,15325,10209,6303,1950,32,3038,3295,8158,5793,11616,3360,
75,4830,10593,15328,15197,10209,7007,2206,32,3678,3935,8350,6497,12128,3488,
76,4894,10401,15136,14685,10145,6431,2206,32,3166,3487,8094,6369,12448,3168,
77,4958,10337,15328,14877,10017,5279,1758,32,2590,2207,7582,5473,11936,2848,
78,5022,10401,15584,15069,9441,5791,2334,32,2590,1503,7454,4641,10720,2848,
79,5086,10977,15392,15005,8609,6303,3422,32,2846,1375,7838,5281,11104,3040,
80,5150,11105,15072,14941,8161,4703,3166,32,2718,543,7518,5729,11744,3040,
81,5214,11041,15072,15133,8737,5215,2654,32,2590,287,6942,4961,11168,3104,
82,5278,11105,15008,15197,9441,8031,2782,32,3038,1311,7070,4641,11296,2976,
83,5342,11297,15072,15197,9569,8671,2910,32,3422,2015,7134,4833,11872,2912,
84,5406,11169,15136,14941,8545,5343,2462,32,3166,1503,6494,3489,10208,2976,
85,5470,10657,14880,14877,7265,3295,2014,32,2590,2079,6494,2977,9568,3104,
86,5534,11169,15008,15197,7969,6047,2270,32,2846,3359,7582,4577,11680,2976,
87,5598,11169,15136,14813,9249,8479,3422,32,3486,4063,7966,6177,13344,3168,
88,5662,11105,15008,14749,8673,7007,3806,32,3870,4575,7646,6561,13536,3617,
89,5726,10657,15072,15133,8865,6687,3038,32,3678,5023,8222,7137,14496,3361,
90,5790,10849,15328,15581,9697,7711,2462,32,3486,3935,8286,7393,15008,2785,
91,5854,10657,14880,14941,8609,6559,2718,32,3230,1887,7070,6433,13344,2913,
92,5918,10657,15008,14941,8161,6431,3486,32,3358,2015,6814,5729,12192,3360,
93,5982,10145,15520,14941,9889,8095,4190,32,3358,3551,7390,6113,12832,3296,
94,6046,10657,15264,14941,9761,8927,4190,32,3294,3359,6878,6177,12576,3168,
95,6110,11041,14560,14621,8033,7775,3294,32,3102,2591,6174,5409,11104,2976,
96,6174,10913,15008,14749,7777,5407,2270,32,2782,2783,6494,4577,10400,2784,
97,6238,10977,15136,15005,8481,5279,2398,32,3102,3295,6878,4449,10592,2912,
98,6302,11169,14560,15069,8609,6367,2462,32,3742,3871,7070,4769,10720,2976,
99,6366,10977,14880,14877,8929,6687,2590,32,3742,4639,7902,5857,11424,2848,
100,6430,10913,15520,14877,10465,7199,3614,32,3358,4575,8606,7713,12576,2976,
101,6494,11297,15392,15197,11169,8223,4062,32,3486,4063,8158,7905,13152,3232,
102,6558,10977,14944,15133,10081,7455,3166,32,3742,4063,7646,6369,12704,2976,
103,6622,11169,15008,15133,9377,5343,2590,32,3678,3679,7774,6625,12576,3232,
104,6686,10977,15008,15005,10529,4959,2782,32,3294,3359,7518,8929,14048,3872,
105,6750,10977,15392,14877,11297,6431,2846,32,3358,3167,7198,9057,14496,3616,
106,6814,10593,15392,14429,10529,7775,3102,32,3422,3167,7518,7713,13216,3040,
107,6878,10721,15264,14813,9569,6111,2974,32,3166,2975,7070,7393,12448,2912,
108,6942,10657,15392,15261,9697,4575,2270,32,2846,2527,6686,7841,13088,2976,
109,7006,10913,15456,15261,9825,4703,2014,32,2782,2399,7326,7841,13024,3104,
110,7070,10785,15200,15005,9185,5151,2910,32,2910,3551,7646,7521,12704,3232,
111,7134,10977,15520,15261,8353,5535,3550,32,3166,4703,7070,6945,12256,3104,
112,7198,11105,15712,15133,8609,5151,2782,32,3166,4511,6686,6497,11040,2848,
113,7262,11297,15136,14685,9697,4703,2142,32,3614,4639,7390,7265,11360,2784,
114,7326,11361,15072,14557,9953,5023,2974,32,4190,5279,8414,8481,12704,2848,
115,7390,11233,15264,14877,9313,5535,4254,32,3550,5215,8286,8673,12576,3104,
116,7454,11233,14880,15197,8737,5471,4446,32,3038,5023,8094,8225,11424,3296,
117,7518,11105,14624,15069,8545,5087,3614,32,3678,4831,8222,8673,11424,3296,
118,7582,11361,15200,15069,9057,4959,3038,32,3998,4831,8286,9249,12128,3488,
119,7646,11041,15392,15133,9825,6431,3934,32,3742,5535,8670,9697,13152,3488,
120,7710,11041,15328,15325,9569,7519,4126,32,4062,5727,8798,10081,13792,3489,
121,7774,11169,15200,14941,9505,6815,2974,32,4062,4895,8414,10081,13408,3553,
122,7838,11489,15328,14813,9889,6559,2974,32,3870,3935,8158,9313,12704,3553,
123,7902,10913,15328,14877,9889,6623,3998,32,3998,3871,8030,8609,12576,3425,
124,7966,10849,15264,15197,9825,4831,3102,32,4062,3935,7838,8481,12960,3489,
125,8030,10657,15200,15005,10401,4575,1950,32,3614,3871,8030,8993,13216,3489,
126,8094,10721,15328,14941,11425,7775,2398,32,3678,4767,8606,10017,13856,3425,
127,8158,10913,15328,14877,12001,8095,2718,32,3806,6367,9054,10657,14752,3489,
244,15646,11233,15136,15133,11297,5471,2590,32,3806,6431,9118,10785,14880,3681,
0,30,11105,15008,14877,10721,5343,2974,32,3934,5535,8734,10593,14560,3617,
1,94,11169,15136,14685,11489,6815,3166,32,4254,6111,8926,10401,14368,3489,
2,158,11041,15264,14941,11681,7071,3422,32,4126,6687,9182,10465,13984,3809,
3,222,10849,15328,15197,11425,7839,4318,32,3742,6111,9246,11553,14432,4001,
4,286,11105,15392,15133,11489,7775,4382,32,3934,5023,9182,12385,15456,4065,
5,350,11041,15456,14621,10657,6175,4254,32,3998,4383,8734,11937,15072,3617,
6,414,11297,15456,14685,10209,7199,4958,32,4062,4639,8542,11681,14240,3297,
7,478,11169,15136,14813,11489,9695,5214,32,4254,5343,8734,11873,14944,3809,
8,542,11169,15008,15389,11105,8607,4510,32,4446,5279,8478,11169,14944,4448,
9,606,10785,15008,15133,9313,6239,4446,32,3870,4255,8286,10529,13472,4064,
10,670,10721,15392,15005,9761,6943,4766,32,3486,4127,8606,10465,12960,3680,
11,734,10657,15456,15005,12001,8991,4830,32,3870,5663,8862,10657,14304,4064,
12,798,11233,15392,15517,11553,7647,4574,32,4318,6431,8670,10913,14304,4000,
13,862,10849,15328,15261,9889,6239,4254,32,4062,5599,8926,11233,13280,3488,
14,926,10657,15456,14941,10657,7839,4190,32,3870,5535,9310,10977,13152,3360,
15,990,11169,15328,15069,11553,8351,4126,32,4062,5663,8926,9953,13344,3552,
16,1054,11233,15200,15261,10209,6303,3358,32,3870,4511,8286,9505,12960,4128,
17,1118,10913,15200,14813,9633,6303,3486,32,3550,4063,8478,10401,12832,4640,
18,1182,11361,15200,14813,10785,8543,4126,32,3614,4511,8926,10977,13792,4193,
19,1246,11617,15264,15133,10849,7199,3294,32,3806,3551,8222,10145,14304,3424,
20,1310,10849,15328,15069,10017,4511,1758,32,3614,3103,7774,10209,14368,3360,
21,1374,11105,15200,15133,10337,5983,1758,32,3998,4255,8350,11361,15072,3809,
22,1438,11553,15200,14941,11489,9247,2398,32,4126,4703,8990,12129,15904,4065,
23,1502,11489,15456,14877,10977,8159,1246,32,3934,3295,8606,11489,14496,3744,
24,1566,10913,15200,14941,9825,5279,350,32,3550,2143,7902,10593,13152,3552,
25,1630,10913,15264,15133,11105,5663,990,32,3678,2847,7774,10849,14368,4128,
26,1694,10401,15520,14877,12705,6943,1822,32,3870,4511,8478,12001,15776,4321,
27,1758,10721,15520,14941,12001,7583,2206,32,4126,6303,9822,12897,15776,4193,
28,1822,10849,15264,14685,11745,9183,2974,32,4190,6687,10078,13281,15648,4449,
29,1886,10913,15264,14813,12129,8799,2782,32,4062,4383,8670,12385,15136,4193,
30,1950,10785,15200,15069,11553,6943,2654,32,3998,3039,7966,11361,14368,3681,
31,2014,11105,15328,15133,10529,7391,4126,32,3870,3295,7966,10145,13664,3616,
32,2078,10977,15392,14749,9633,8927,4894,32,3422,2015,6622,8289,12064,3616,
33,2142,11041,15328,15005,10017,9695,4190,32,3358,1247,6238,8801,12064,4192,
34,2206,11297,15328,15453,11041,8927,3934,32,3742,3231,8222,11617,14240,4192,
35,2270,11233,15456,15325,10785,7583,3998,32,3806,4447,9182,12833,15072,3745,
36,2334,11553,15456,14941,10209,7455,3230,32,3742,3551,8606,12449,14304,4385,
37,2398,11553,15264,14749,11553,8991,2590,32,3998,4447,8926,12769,14752,4577,
38,2462,11361,15328,14941,12449,9247,2654,32,4318,5279,9182,12449,14944,3553,
39,2526,10657,15520,14813,10849,6815,2270,32,3870,4063,8286,10913,13536,3425,
40,2590,11169,15712,14941,9889,5407,1054,32,3614,3551,7710,9825,12896,4000,
41,2654,11297,15456,14941,11041,7199,798,32,3806,4575,8094,10209,13728,4001,
42,2718,11041,15328,15005,11809,8927,1438,32,3934,4767,8158,10785,14048,3681,
43,2782,10465,15328,14557,11425,7711,1758,32,3614,3743,8158,10465,13728,3425,
44,2846,10849,15968,14621,11041,6623,1630,32,3678,3359,8542,10337,13856,3617,
45,2910,10785,16032,14813,11809,7519,1502,32,3998,4063,8798,11105,14304,4385,
46,2974,10977,15456,15069,12513,7007,1758,32,3998,5279,8926,11681,14496,4641,
47,3038,11169,15264,14941,12705,7839,3294,32,3870,5983,9310,12641,15328,4193,
48,3102,11489,15520,14941,12705,9695,4894,32,4126,5407,9374,13537,15776,4385,
49,3166,11297,15648,15005,12321,8991,4766,32,4190,4447,8862,12577,14624,4897,
50,3230,11041,15328,15133,10913,7391,3806,32,3486,3423,8222,10657,13152,4321,
51,3294,11425,15072,15197,9505,6495,3486,32,3166,2655,7838,10273,12768,3361,
52,3358,11617,15200,15069,10401,6559,3742,32,3678,3103,8158,11873,14240,3937,
53,3422,11361,15904,14877,11297,7391,3870,32,4062,3871,8478,12577,15584,4641,
54,3486,10977,16224,14941,11425,8351,3742,32,3870,4319,9054,12641,15968,4577,
55,3550,11169,15840,15325,12513,7967,3550,32,3934,4831,9758,13409,16352,4833,
56,3614,11105,15520,15133,13665,8607,3422,32,3870,5151,9502,13602,352,4641,
57,3678,11553,15712,15261,12193,8159,3166,32,4126,4831,9054,12193,15328,4193,
58,3742,11041,15840,15133,10657,5727,3358,32,4126,4959,9374,11617,13728,4513,
59,3806,10785,15776,14877,11873,6815,3742,32,3934,5471,9310,11745,13408,4257,
60,3870,10849,15392,14877,12513,9503,3294,32,3486,4767,8094,10017,12704,3232,
61,3934,11233,15264,15261,9953,7647,2334,32,3230,2463,6750,7073,10400,3040,
62,3998,10977,14944,15197,8481,5663,2590,32,3166,1567,6814,6881,9696,3296,
63,4062,10913,15136,15325,9761,7071,2846,32,3230,2079,7582,8993,11488,3360,
64,4126,10593,15520,15069,10401,6367,1822,32,3230,863,7262,8545,11744,3360,
65,4190,10849,15712,14813,9633,3999,798,32,3165,15903,6558,6369,10336,3168,
66,4254,11041,15520,14813,10017,5983,606,32,3294,1247,7710,7585,11232,3552,
67,4318,11169,15328,14941,10465,7455,414,32,3294,3103,8670,9889,13024,4128,
68,4382,11489,15264,14877,10401,5278,16350,32,3294,3359,7710,9249,12320,3808,
69,4446,11105,15328,14813,11169,5791,734,32,3486,3807,7518,8481,11296,3360,
70,4510,10913,15584,15005,10593,6559,1374,32,3614,3807,7966,8545,11168,3424,
71,4574,10977,15456,15133,9313,5471,1566,32,3550,3231,8222,8801,11360,3552,
72,4638,11425,15648,15325,9889,6303,2014,32,3358,3231,8286,9249,11744,3616,
73,4702,11233,15712,15005,10465,7135,2526,32,2846,2655,7902,8481,11232,3296,
74,4766,11297,15328,15133,9313,6559,2590,32,2782,1823,7582,7521,10016,3168,
75,4830,10657,15136,15133,9569,7647,2782,32,3358,2911,8350,8929,10976,3680,
76,4894,10657,15520,15325,11041,7583,2910,32,4062,4063,9054,10529,12896,4192,
77,4958,10849,15456,14941,10785,5855,2718,32,3934,4255,8798,10145,13152,4257,
78,5022,10913,15328,14877,9953,7199,2526,32,3742,4255,8606,10081,13088,4001,
79,5086,10529,15328,14941,10017,8287,2334,32,3998,3615,8286,10145,12704,3361,
80,5150,10785,15584,14685,10529,7199,2334,32,3934,2655,7966,9569,11744,3488,
81,5214,11169,15520,14557,10913,7135,2590,32,3550,2143,8222,9761,12256,4129,
82,5278,11297,15264,15005,10785,7071,2910,32,3486,1631,8094,9633,12512,3873,
83,5342,11169,15264,15261,10721,8351,3742,32,3742,2463,8222,9441,11680,3489,
84,5406,10785,15264,15133,10401,8799,3550,32,3806,3551,8350,9569,11680,3617,
85,5470,11169,15136,15133,9761,5919,2526,32,3742,2847,7582,8673,11552,3808,
86,5534,11361,15136,14941,10081,5983,3358,32,3742,3039,7454,8417,11168,3808,
87,5598,11489,15264,14941,10785,8415,4382,32,3870,4447,8094,9121,11424,3744,
88,5662,11425,15072,15005,10529,8095,3486,32,3806,5023,8478,8929,11488,3744,
89,5726,11681,15456,14877,10081,7263,2462,32,3422,4191,8286,8289,11104,3488,
90,5790,11105,15712,14685,10465,8031,2846,32,3230,3295,7646,9377,12192,3297,
91,5854,10977,15584,15261,10785,7199,2398,32,3614,3359,7262,10209,13600,4065,
92,5918,10849,15520,15325,11745,6495,2206,32,3806,4959,8286,10721,14624,4577,
93,5982,10913,15648,15197,12385,7327,2590,32,3742,5023,8478,10721,14816,3745,
94,6046,10785,15520,15069,11553,7775,2590,32,3550,3103,7006,10273,14304,3873,
95,6110,11169,15520,15005,11489,7967,2974,32,3678,2591,7070,10977,14496,4769,
96,6174,11169,15712,15005,11681,8159,3614,32,3806,3039,7838,11553,14496,4321,
97,6238,11233,15712,15325,10401,7199,2910,32,3550,1951,7006,10529,13344,3488,
98,6302,11297,15392,15261,9249,5215,2270,32,3230,927,6430,10081,12832,3552,
99,6366,11041,15264,14877,10017,5663,3486,32,3678,2783,7774,11809,14048,4385,
100,6430,11297,15456,14941,10913,8479,3870,32,4382,5407,9182,13473,14688,4833,
101,6494,11425,15520,15069,10465,8735,2334,32,3934,4959,8798,12961,13152,4512,
102,6558,11553,15456,15005,10465,7839,1566,32,3486,3167,7774,11937,11744,4128,
103,6622,11233,15328,14749,11425,7967,2142,32,3614,2591,7646,11681,12256,4384,
104,6686,11361,15392,15005,11489,7647,3102,32,3550,2079,7966,11361,12448,4512,
105,6750,11041,15584,14877,11361,8607,3998,32,3486,1823,8094,11937,12832,4320,
106,6814,11297,15840,15069,11809,10207,3422,32,3870,1631,7518,12257,12960,4129,
107,6878,11233,15584,15133,11425,8927,2270,32,3614,927,6686,10401,11424,3680,
108,6942,11233,15520,15325,11169,7839,2078,32,3486,1695,7006,9697,10912,3680,
109,7006,10593,15520,14813,12513,8991,2334,32,3614,4127,8158,12129,13344,3937,
110,7070,10657,15712,14877,12769,9119,2078,32,3550,4767,8478,13217,14560,4257,
111,7134,10977,15456,15325,11937,8799,2334,32,3806,4127,8286,12129,13920,4385,
112,7198,11169,15456,15261,12129,8671,2462,32,4126,4767,8094,11489,13472,3873,
113,7262,11041,16032,14877,12833,8543,2270,32,3678,5471,8158,12001,13472,3681,
114,7326,11361,16096,15005,12769,9183,2910,32,3742,5215,8606,12641,13600,4321,
115,7390,11553,15584,15197,11617,9567,3486,32,4382,5023,8670,12513,13472,4961,
116,7454,11233,15328,14941,10849,8287,3230,32,3870,4575,8030,11361,12448,4512,
117,7518,11553,15456,14877,10785,7647,3166,32,3230,2847,7262,9825,11488,3488,
118,7582,11617,15456,15069,11041,9567,3230,32,3742,2207,7198,9697,12128,3488,
119,7646,11745,15520,15005,10977,10143,2462,32,4190,2783,7326,10593,12832,4192,
120,7710,11553,15456,14749,11041,9375,1758,32,3614,2847,7198,10657,12768,4128,
121,7774,11425,15520,15197,10209,9311,2462,32,3422,1695,6622,9377,12128,3488,
122,7838,10913,15264,15197,8609,8031,3486,32,3293,16351,5534,7137,10656,3040,
123,7902,11297,15392,14877,8993,7647,3358,32,2909,15903,5086,6113,9824,3232,
124,7966,11105,15712,14877,10849,10783,3038,32,3102,2271,6942,8929,12192,4001,
125,8030,10849,15712,15325,10977,11423,2910,32,3998,4383,8606,11617,13984,4065,
126,8094,10721,15520,14813,10465,8607,2398,32,3998,3423,7966,10977,12768,3617,
127,8158,11297,15904,14813,11425,9055,2334,32,3742,3487,7966,11361,12896,4385,
244,15646,11233,15648,14877,12065,10911,3358,32,4126,5599,8926,12961,13600,4769,
0,30,11297,15392,14813,11041,9119,3870,32,4126,5215,8030,10977,11680,3808,
1,94,11489,15968,14941,10529,8095,3678,32,3742,3871,7006,8865,10208,3808,
2,158,11617,15904,15069,11169,9695,3166,32,3550,4703,7966,10657,11616,4384,
3,222,11489,15584,15005,11361,10079,2334,32,3678,5407,8734,12257,13216,4129,
4,286,10977,15456,15133,10913,9247,2270,32,3742,4639,8414,12065,13472,4256,
5,350,11169,15200,15133,10977,9887,3038,32,3998,4319,8350,12129,13280,4769,
6,414,11425,15200,14941,11489,10527,3230,32,3870,4447,8030,12385,13216,4065,
7,478,11425,15904,15389,11617,9759,2846,32,3742,3871,7454,11297,12960,3552,
8,542,11233,15968,15325,11361,10271,2846,32,3742,3359,7646,10657,12576,4064,
9,606,11553,15584,15069,10273,10079,2654,32,3870,3231,7774,10593,12576,4065,
10,670,10849,15392,14941,9953,9311,2846,32,3678,3103,7390,10401,13216,3617,
11,734,10977,15520,15069,9697,9247,3038,32,3550,1823,6558,9569,12512,3424,
12,798,11105,15328,14685,8609,8095,2270,32,3230,927,5854,8289,11616,3424,
13,862,10977,15264,14365,8609,7903,2398,32,3550,2399,6302,8609,12896,3873,
14,926,10721,15456,14301,9505,10207,3166,32,4062,4127,7390,10465,14240,4577,
15,990,11361,15584,15005,8097,10143,2462,32,3998,3807,7518,10721,13024,4257,
16,1054,11361,15264,14941,7457,9503,2462,32,3998,4127,8030,9889,12064,3616,
17,1118,11297,15392,14685,9121,10591,4126,32,4254,5215,8798,9889,12064,3808,
18,1182,11553,15776,14877,8865,9631,3998,32,3934,4831,8734,10337,11168,4064,
19,1246,11553,15712,15197,7841,8863,2270,32,3614,3743,8286,10977,11168,4192,
20,1310,11489,15264,14941,8033,10335,1822,32,3870,2655,7518,10401,11808,4512,
21,1374,11553,15136,14685,8353,10783,2270,32,3550,2143,7006,9441,11680,4384,
22,1438,11809,15456,15069,8865,9375,1886,32,3294,1503,6622,9121,11104,3488,
23,1502,11169,15456,15069,9953,8479,990,32,3293,16287,5534,7969,10720,2912,
24,1566,11105,15584,15197,10977,9439,990,32,3357,16031,5214,7073,11040,3680,
25,1630,11233,15648,15325,10465,9119,1182,32,3294,927,5982,8353,11680,4064,
26,1694,11489,15520,15517,8865,7263,862,32,3358,863,5790,8801,11104,3872,
27,1758,11105,15328,15069,9313,8543,1310,32,3294,991,5982,8161,10784,3808,
28,1822,11425,15520,15069,10273,10463,1566,32,3294,2079,6750,8289,11744,3872,
29,1886,11105,15264,15069,8417,8735,1502,32,3358,1695,5982,7713,11296,4000,
30,1950,10849,15264,15133,6881,8159,1950,32,3678,1247,5534,6689,10016,4256,
31,2014,10913,15584,14813,8097,9695,1950,32,3678,2143,6110,6497,9888,3616,
32,2078,11233,15328,15005,7265,8095,990,32,3038,1887,5854,5665,9056,2784,
33,2142,11105,15392,15197,5793,7007,1374,32,2718,1311,6174,6049,8416,3616,
34,2206,11041,15968,15069,7521,8159,2270,32,3358,2783,7390,7649,9760,4384,
35,2270,11361,15584,14877,8929,8607,1886,32,3934,4447,7902,8033,10656,3744,
36,2334,11681,15264,15005,8865,9503,1822,32,3806,4831,7966,8737,10912,3936,
37,2398,11937,15648,14941,9249,9055,2014,32,3934,3743,8222,9761,11104,4832,
38,2462,11617,15456,14621,9441,7775,1502,32,3550,2271,7582,9121,10912,4320,
39,2526,11617,15328,14749,8993,8607,1054,32,3166,1567,6494,7777,10592,3424,
40,2590,11425,15456,14685,8801,10399,1822,32,3294,1503,6686,8033,11104,3744,
41,2654,11425,15392,15005,8609,9503,2270,32,3550,1311,7070,8417,11104,4064,
42,2718,10721,15136,15005,8417,7711,2014,32,3422,1119,6558,7969,10592,4000,
43,2782,10849,15392,15005,8929,8351,2078,32,3614,991,6494,8033,10976,4320,
44,2846,11169,15520,14941,9057,8991,2078,32,3614,1311,7454,8673,12192,4385,
45,2910,11425,15584,15261,8097,7391,1630,32,3486,2527,7838,8353,12384,4065,
46,2974,10913,15776,15133,8161,7839,2078,32,3550,3615,7262,7585,11680,4065,
47,3038,11297,15840,15197,9953,10655,2718,32,3870,3231,6750,7969,11680,4384,
48,3102,11361,15456,15261,10785,10527,2398,32,3614,2719,7006,8289,12000,4192,
49,3166,11105,15264,15133,9761,9439,2590,32,3614,4127,8094,8481,12256,4448,
50,3230,11361,15456,14813,10017,10207,2974,32,4254,6175,8606,9505,12704,4704,
51,3294,11617,15584,14685,10337,9183,1950,32,3998,5407,7838,8993,12064,4384,
52,3358,11553,15520,15069,9377,8735,1758,32,3294,3039,7454,8097,11488,4192,
53,3422,11617,15648,15325,9377,10911,3166,32,3358,2975,8222,9569,12896,4768,
54,3486,11873,15776,15389,10209,11615,3102,32,3998,4127,8606,10273,13344,4896,
55,3550,11361,15584,15069,10529,11999,2782,32,3998,4063,8158,9569,12832,4768,
56,3614,11489,15520,15069,10209,12447,2782,32,4190,3487,7646,9505,13536,4833,
57,3678,11425,15392,14877,9761,10783,1630,32,4062,3743,7582,9697,14176,4577,
58,3742,11553,15520,15133,9889,10527,1438,32,3934,3935,7966,9761,13856,4385,
59,3806,11169,15456,14877,9953,11743,2334,32,3870,2911,7838,10081,13344,4384,
60,3870,11361,15584,14685,8481,9759,1694,32,3550,1823,6942,8737,12256,4448,
61,3934,10913,15584,14621,8225,9311,2398,32,3294,3103,6878,7969,12000,4704,
62,3998,11105,15520,15197,9377,12447,4446,32,3678,4127,7390,8609,12256,4896,
63,4062,11361,15392,15325,9121,12575,3998,32,3742,2975,7006,7905,11296,4320,
64,4126,11489,15328,15133,8225,10847,2782,32,3550,3103,6750,7521,11104,4000,
65,4190,11297,15456,15069,8929,12191,3550,32,3742,4447,7262,9057,12256,4576,
66,4254,11361,15712,15197,10017,12767,3742,32,3934,3999,7262,9377,12192,4384,
67,4318,11617,15840,14877,9697,11039,2974,32,3870,3295,6942,8353,11296,3872,
68,4382,11425,15648,14685,9121,11487,3166,32,4062,3807,6878,7841,10976,4128,
69,4446,11489,15456,15005,9697,12831,3422,32,4510,4191,7198,8097,11552,4704,
70,4510,11617,15712,14941,10657,12575,2718,32,4062,4319,8158,9313,12768,4768,
71,4574,11873,15776,14813,10337,11871,2078,32,3550,4127,8094,9505,12768,4576,
72,4638,11169,15520,14941,9953,11295,2398,32,3486,3295,7198,8993,12576,4768,
73,4702,11169,15904,15389,9889,10271,2206,32,3614,2655,7070,9249,12896,4768,
74,4766,11425,16096,15005,10017,11167,1502,32,3422,2975,7454,9761,13024,4512,
75,4830,11489,16096,14877,10977,12831,1566,32,3806,3679,7582,10081,13280,4512,
76,4894,10913,15840,15069,11617,11999,1950,32,4254,4959,8350,10785,14176,4769,
77,4958,11169,15904,15453,11297,11231,2142,32,4190,6111,8798,11041,14304,4769,
78,5022,11041,15968,15005,11233,12575,2782,32,4254,6687,8542,11489,14688,4705,
79,5086,11297,16160,15005,11361,13023,2974,32,4638,6175,8798,12257,15264,4961,
80,5150,11489,15904,15069,11553,12447,2974,32,4382,5151,8862,12129,14624,5153,
81,5214,11425,15712,15261,12001,12511,3678,32,3934,4895,8478,10977,13728,5025,
82,5278,11297,15712,15133,11297,12255,4126,32,4062,4959,8158,9953,12960,4641,
83,5342,11553,15648,14685,9697,12191,4446,32,3998,4127,7454,8737,11552,4320,
84,5406,11745,15904,14813,9441,13151,4766,32,3550,2719,6750,7329,10400,4256,
85,5470,11617,16160,15197,10465,14175,4894,32,3678,3295,6942,7841,11104,4640,