title: EEG-recording_3, recorded: 16.02.23 04.36.02, timestamp started:2017-11-21T16:17:43.558438-08:00            , sampling:128, subject:, labels:COUNTER INTERPOLATED F3 FC5 AF3 F7 T7 P7 O1 O2 P8 T8 F8 AF4 FC6 F4 RAW_CQ GYROX GYROY MARKER MARKER_HARDWARE SYNC TIME_STAMP_s TIME_STAMP_ms CQ_AF3 CQ_F7 CQ_F3 CQ_FC5 CQ_T7 CQ_P7 CQ_O1 CQ_O2 CQ_P8 CQ_T8 CQ_FC6 CQ_F4 CQ_F8 CQ_AF4 CQ_CMS CQ_DRL, , chan:40, samples:1531, units:emotiv
34,7764,7685,8643,9144,8807,8396,8470,8475,7863,9002,9661,8756,8936,7661
35,7765,7686,8641,9144,8806,8395,8468,8480,7858,9003,9658,8762,8938,7661
36,7763,7690,8640,9150,8807,8395,8474,8480,7857,9000,9657,8761,8942,7663
37,7765,7687,8643,9154,8807,8394,8476,8473,7860,8991,9661,8760,8941,7666
38,7772,7685,8648,9151,8808,8398,8476,8473,7860,8994,9661,8763,8942,7663
39,7770,7687,8645,9151,8812,8400,8479,8474,7855,9001,9656,8763,8941,7656
40,7766,7686,8643,9150,8811,8395,8476,8469,7850,8990,9658,8762,8939,7664
41,7765,7688,8648,9151,8809,8399,8473,8470,7851,8984,9659,8759,8935,7667
42,7769,7691,8649,9155,8802,8398,8471,8475,7853,8999,9657,8760,8940,7660
43,7766,7690,8640,9156,8803,8398,8475,8475,7851,9004,9656,8760,8942,7654
44,7768,7686,8635,9147,8805,8393,8469,8472,7852,8996,9661,8761,8943,7664
45,7766,7685,8641,9145,8806,8396,8471,8473,7859,8997,9659,8758,8938,7659
46,7768,7686,8646,9145,8800,8390,8469,8469,7861,8998,9657,8762,8940,7659
47,7761,7690,8641,9148,8805,8394,8471,8470,7860,8997,9657,8761,8936,7659
48,7762,7687,8638,9148,8806,8391,8471,8476,7857,8998,9659,8758,8937,7660
49,7761,7683,8641,9151,8808,8391,8476,8476,7858,8999,9652,8760,8940,7658
50,7765,7685,8643,9147,8809,8393,8469,8476,7861,8999,9652,8762,8942,7664
51,7767,7692,8641,9145,8812,8403,8468,8479,7860,8997,9659,8758,8943,7664
52,7768,7691,8643,9143,8808,8395,8474,8472,7858,9000,9663,8758,8947,7661
53,7767,7687,8648,9146,8806,8388,8477,8467,7860,9000,9661,8760,8945,7665
54,7765,7684,8645,9146,8804,8396,8472,8474,7856,8992,9657,8759,8942,7668
55,7767,7686,8641,9144,8804,8395,8470,8474,7851,8990,9661,8759,8944,7666
56,7764,7687,8641,9143,8808,8392,8474,8472,7853,8999,9663,8760,8947,7667
57,7764,7686,8643,9142,8804,8398,8476,8473,7856,8999,9666,8762,8947,7666
58,7764,7687,8643,9146,8804,8402,8477,8474,7855,8991,9667,8763,8939,7656
59,7768,7687,8642,9145,8807,8394,8470,8473,7854,8992,9664,8762,8941,7661
60,7766,7686,8642,9149,8816,8403,8473,8473,7856,8994,9659,8757,8941,7666
61,7770,7687,8644,9153,8812,8402,8478,8473,7855,8992,9662,8760,8940,7668
62,7769,7689,8643,9153,8808,8398,8480,8471,7856,8993,9661,8758,8941,7660
63,7769,7688,8644,9147,8803,8390,8471,8474,7854,8993,9658,8757,8944,7660
64,7766,7689,8647,9150,8809,8395,8477,8480,7855,8990,9656,8755,8932,7658
65,7769,7687,8647,9152,8810,8394,8480,8478,7858,8995,9656,8759,8934,7663
66,7765,7686,8643,9152,8814,8397,8475,8472,7859,8993,9658,8758,8944,7665
67,7762,7686,8641,9149,8812,8391,8469,8473,7857,8982,9664,8757,8943,7664
68,7766,7685,8636,9148,8807,8392,8474,8475,7856,8987,9660,8762,8938,7659
69,7770,7683,8632,9148,8809,8393,8476,8473,7856,9002,9655,8762,8937,7656
70,7767,7687,8639,9147,8816,8394,8473,8472,7853,9003,9657,8756,8936,7658
71,7761,7685,8643,9144,8812,8392,8472,8474,7861,8998,9659,8755,8942,7663
72,7767,7680,8640,9146,8802,8389,8473,8476,7867,9002,9659,8763,8946,7662
73,7770,7686,8642,9152,8805,8396,8476,8477,7859,9003,9656,8764,8940,7658
74,7769,7688,8645,9147,8810,8395,8473,8476,7854,9000,9659,8761,8939,7664
75,7768,7685,8644,9147,8812,8398,8475,8475,7859,9000,9662,8760,8943,7666
76,7772,7686,8644,9153,8801,8395,8474,8472,7857,9000,9663,8762,8947,7669
77,7767,7688,8643,9153,8801,8399,8475,8471,7853,8998,9662,8761,8938,7660
78,7769,7684,8641,9144,8806,8392,8471,8474,7858,8994,9662,8763,8936,7658
79,7768,7685,8643,9150,8810,8392,8474,8477,7862,8996,9656,8762,8939,7659
80,7767,7687,8647,9150,8803,8390,8473,8475,7854,8999,9659,8763,8941,7665
81,7762,7685,8644,9145,8804,8393,8472,8476,7853,8995,9661,8762,8932,7657
82,7768,7687,8641,9146,8808,8390,8470,8474,7860,8991,9654,8762,8938,7659
83,7766,7690,8642,9152,8811,8391,8472,8469,7861,8985,9654,8758,8944,7663
84,7763,7688,8643,9146,8804,8392,8468,8471,7862,8982,9663,8758,8939,7662
85,7761,7685,8642,9144,8802,8396,8471,8476,7862,8994,9663,8758,8937,7661
86,7762,7686,8642,9146,8809,8397,8476,8473,7856,9001,9659,8757,8945,7662
87,7765,7688,8645,9145,8812,8397,8474,8469,7855,8997,9659,8761,8949,7661
88,7767,7685,8644,9145,8812,8399,8474,8470,7862,8997,9655,8764,8941,7660
89,7768,7683,8643,9148,8811,8398,8475,8469,7860,9000,9658,8760,8940,7666
90,7762,7689,8642,9152,8809,8400,8476,8471,7858,8996,9661,8758,8940,7666
91,7765,7691,8642,9151,8806,8394,8471,8474,7861,8997,9660,8763,8942,7663
92,7765,7685,8642,9149,8812,8401,8472,8478,7862,9001,9657,8759,8943,7659
93,7769,7684,8645,9145,8806,8400,8472,8477,7858,8996,9660,8758,8943,7665
94,7768,7690,8644,9149,8807,8399,8476,8472,7860,8986,9660,8760,8936,7666
95,7769,7688,8641,9146,8806,8391,8474,8471,7865,8989,9661,8762,8938,7665
96,7766,7685,8644,9144,8808,8396,8472,8472,7863,9000,9657,8757,8940,7656
97,7769,7684,8645,9146,8809,8395,8471,8466,7858,9001,9658,8757,8940,7659
98,7766,7688,8643,9149,8809,8396,8477,8471,7859,8995,9660,8755,8934,7658
99,7764,7687,8644,9145,8800,8391,8472,8483,7864,8997,9660,8756,8936,7658
100,7765,7684,8644,9150,8801,8392,8471,8478,7862,8997,9655,8758,8940,7661
101,7771,7686,8641,9151,8813,8392,8475,8472,7857,8998,9652,8758,8940,7664
102,7771,7686,8643,9143,8816,8392,8477,8475,7860,9001,9659,8759,8939,7660
103,7767,7684,8645,9144,8803,8393,8474,8471,7860,8996,9663,8757,8938,7660
104,7766,7685,8641,9150,8797,8395,8470,8468,7859,8994,9660,8759,8941,7667
105,7762,7688,8640,9151,8808,8400,8472,8475,7854,9001,9654,8761,8940,7661
106,7762,7689,8640,9149,8805,8398,8472,8476,7853,9001,9657,8760,8940,7657
107,7762,7688,8639,9148,8797,8403,8474,8470,7858,8997,9658,8758,8942,7657
108,7768,7686,8643,9145,8802,8397,8468,8473,7858,9001,9661,8763,8946,7661
109,7767,7689,8645,9150,8813,8399,8472,8476,7855,9002,9666,8763,8943,7660
110,7768,7690,8644,9149,8806,8393,8474,8470,7858,8998,9668,8760,8945,7667
111,7764,7687,8644,9151,8809,8397,8475,8471,7862,8999,9664,8762,8943,7663
112,7769,7685,8644,9153,8809,8395,8475,8478,7857,9000,9661,8764,8942,7659
113,7773,7687,8641,9150,8808,8401,8478,8479,7855,8999,9659,8760,8940,7657
114,7773,7691,8642,9144,8806,8394,8475,8470,7858,8999,9660,8761,8947,7663
115,7767,7691,8644,9147,8810,8393,8477,8469,7857,8999,9658,8764,8944,7663
116,7768,7684,8641,9151,8805,8397,8477,8476,7854,8999,9658,8764,8939,7665
117,7765,7684,8643,9151,8803,8402,8475,8478,7858,8999,9662,8759,8940,7665
118,7761,7691,8643,9144,8807,8394,8474,8471,7861,9000,9661,8759,8943,7659
119,7767,7689,8641,9145,8806,8391,8474,8468,7856,8998,9658,8761,8941,7659
120,7772,7682,8641,9148,8806,8394,8472,8476,7854,9000,9659,8757,8936,7661
121,7771,7683,8643,9144,8807,8390,8470,8478,7858,9000,9661,8755,8939,7662
122,7764,7688,8640,9141,8809,8390,8471,8473,7861,8996,9658,8757,8942,7656
123,7766,7688,8641,9142,8805,8389,8466,8474,7859,8995,9658,8763,8945,7657
124,7764,7686,8650,9147,8809,8395,8472,8479,7859,8994,9657,8762,8942,7657
125,7765,7685,8651,9147,8810,8393,8473,8478,7858,8994,9658,8762,8943,7661
126,7761,7687,8641,9149,8813,8400,8472,8473,7857,8990,9656,8760,8939,7657
127,7767,7689,8640,9146,8807,8394,8468,8472,7855,8988,9660,8761,8938,7661
240,7766,7689,8644,9150,8807,8396,8474,8472,7854,8995,9663,8759,8940,7662
0,7765,7685,8642,9146,8807,8397,8473,8473,7858,9001,9666,8758,8943,7664
1,7762,7686,8642,9143,8810,8403,8472,8471,7860,8998,9664,8756,8939,7663
2,7769,7689,8650,9148,8804,8397,8472,8465,7855,8997,9660,8757,8943,7664
3,7772,7689,8649,9151,8807,8393,8473,8467,7853,9000,9658,8761,8943,7661
4,7768,7687,8640,9144,8810,8395,8470,8471,7858,9000,9662,8766,8935,7665
5,7764,7689,8642,9143,8807,8395,8472,8473,7858,9002,9666,8765,8935,7662
6,7763,7687,8648,9150,8803,8393,8473,8470,7858,8996,9662,8760,8942,7655
7,7766,7686,8646,9152,8803,8397,8471,8469,7865,8988,9658,8759,8939,7660
8,7767,7689,8642,9146,8805,8401,8475,8469,7863,8999,9655,8758,8934,7664
9,7771,7690,8643,9145,8805,8396,8473,8471,7855,9006,9658,8761,8940,7664
10,7766,7686,8643,9152,8806,8399,8472,8472,7856,8993,9655,8757,8939,7660
11,7764,7687,8641,9150,8803,8395,8473,8469,7860,8990,9653,8755,8940,7664
12,7762,7691,8645,9147,8810,8395,8477,8472,7854,9001,9659,8759,8938,7661
13,7768,7686,8647,9143,8810,8390,8470,8474,7851,9000,9662,8761,8938,7664
14,7766,7687,8643,9150,8810,8397,8475,8475,7856,8994,9654,8756,8940,7662
15,7765,7691,8642,9151,8809,8393,8478,8475,7855,8997,9658,8757,8944,7662
16,7762,7687,8645,9150,8812,8396,8477,8472,7852,9001,9663,8759,8939,7658
17,7767,7685,8645,9150,8808,8395,8473,8470,7855,9000,9663,8759,8941,7663
18,7764,7692,8642,9153,8813,8399,8476,8471,7857,9000,9662,8759,8947,7664
19,7763,7692,8643,9150,8811,8398,8474,8472,7853,9000,9660,8764,8949,7663
20,7767,7685,8644,9148,8806,8400,8470,8469,7856,8998,9658,8761,8943,7662
21,7769,7685,8644,9147,8803,8397,8472,8473,7857,8994,9659,8758,8942,7665
22,7770,7686,8645,9145,8804,8394,8475,8478,7855,8990,9659,8762,8944,7663
23,7769,7683,8645,9147,8806,8401,8474,8476,7855,8987,9659,8765,8942,7666
24,7767,7686,8644,9148,8803,8397,8473,8473,7853,8990,9664,8763,8939,7675
25,7763,7690,8642,9146,8804,8391,8476,8475,7857,8998,9661,8758,8938,7662
26,7766,7686,8644,9147,8806,8392,8475,8476,7863,9002,9659,8759,8942,7657
27,7766,7685,8643,9151,8810,8399,8478,8475,7859,9002,9662,8760,8938,7661
28,7771,7689,8641,9143,8803,8391,8472,8473,7851,8999,9664,8763,8937,7662
29,7767,7690,8640,9142,8806,8393,8471,8477,7855,8997,9655,8759,8936,7655
30,7762,7686,8641,9146,8805,8390,8471,8481,7856,8997,9655,8757,8942,7662
31,7759,7690,8641,9149,8806,8392,8471,8478,7853,9000,9664,8754,8941,7661
32,7768,7691,8644,9142,8807,8390,8468,8467,7856,8998,9667,8755,8941,7662
33,7763,7686,8648,9144,8811,8398,8473,8468,7858,8994,9659,8759,8939,7662
34,7764,7685,8645,9147,8806,8397,8471,8479,7854,8994,9656,8763,8940,7663
35,7767,7687,8640,9147,8805,8396,8470,8480,7856,8988,9658,8758,8938,7660
36,7766,7683,8640,9146,8805,8389,8469,8468,7856,8984,9659,8756,8940,7661
37,7765,7682,8646,9147,8804,8389,8469,8466,7857,8994,9661,8758,8943,7662
38,7767,7685,8646,9144,8805,8394,8471,8476,7859,9002,9658,8761,8944,7666
39,7767,7688,8643,9145,8808,8396,8474,8477,7857,9000,9654,8764,8942,7666
40,7763,7687,8645,9150,8810,8397,8475,8474,7856,8998,9657,8761,8940,7662
41,7767,7687,8646,9150,8804,8388,8471,8475,7858,8998,9661,8756,8941,7666
42,7768,7688,8642,9150,8804,8390,8470,8473,7860,8999,9658,8757,8939,7667
43,7768,7690,8642,9148,8805,8394,8464,8468,7860,9001,9659,8765,8939,7667
44,7765,7690,8644,9146,8806,8396,8469,8470,7862,8994,9659,8762,8935,7659
45,7770,7686,8643,9141,8802,8390,8471,8475,7863,8986,9657,8755,8938,7665
46,7767,7685,8640,9145,8807,8398,8474,8474,7860,8994,9654,8750,8935,7663
47,7770,7686,8642,9144,8809,8394,8472,8473,7853,9003,9658,8755,8933,7662
48,7770,7687,8643,9145,8809,8396,8472,8479,7853,8999,9659,8759,8933,7661
49,7768,7685,8644,9144,8804,8396,8468,8478,7864,8995,9659,8760,8939,7663
50,7764,7686,8642,9146,8808,8396,8468,8473,7865,8997,9658,8756,8941,7659
51,7769,7688,8637,9146,8801,8389,8470,8476,7851,9001,9659,8756,8943,7661
52,7766,7684,8638,9148,8798,8394,8474,8475,7850,8998,9660,8759,8941,7661
53,7762,7681,8647,9146,8806,8397,8471,8469,7862,8990,9663,8760,8940,7660
54,7763,7685,8647,9144,8808,8391,8470,8474,7864,8996,9660,8761,8942,7660
55,7763,7686,8637,9144,8803,8391,8471,8483,7860,9002,9656,8759,8939,7659
56,7767,7682,8638,9147,8808,8399,8470,8477,7860,8996,9663,8758,8939,7662
57,7769,7683,8646,9153,8815,8404,8472,8472,7858,8995,9665,8760,8943,7665
58,7770,7688,8646,9151,8802,8390,8473,8474,7853,8997,9657,8763,8943,7667
59,7767,7687,8643,9145,8799,8396,8476,8474,7858,8995,9655,8760,8938,7663
60,7769,7683,8646,9143,8805,8400,8471,8475,7860,8996,9665,8759,8945,7666
61,7768,7687,8644,9149,8811,8397,8473,8476,7858,8997,9661,8760,8946,7664
62,7771,7689,8639,9143,8805,8389,8476,8473,7860,8994,9660,8765,8942,7665
63,7764,7684,8640,9141,8805,8396,8476,8474,7863,8998,9660,8759,8937,7654
64,7764,7685,8643,9143,8804,8391,8467,8477,7863,9000,9660,8758,8940,7656
65,7767,7689,8643,9148,8802,8391,8470,8473,7862,8997,9655,8758,8936,7662
66,7770,7683,8643,9147,8799,8389,8472,8472,7858,8997,9661,8760,8935,7663
67,7764,7682,8643,9146,8804,8392,8471,8479,7855,8998,9668,8762,8935,7660
68,7765,7688,8644,9141,8804,8388,8464,8479,7857,8996,9660,8762,8938,7664
69,7766,7689,8645,9146,8805,8389,8465,8477,7860,8997,9652,8758,8945,7663
70,7764,7684,8644,9150,8809,8391,8470,8478,7861,8997,9658,8758,8943,7660
71,7763,7685,8644,9143,8805,8396,8472,8476,7860,8997,9659,8763,8937,7666
72,7763,7689,8642,9139,8804,8395,8474,8473,7857,8998,9651,8759,8938,7665
73,7768,7689,8642,9147,8806,8389,8471,8475,7859,8996,9658,8757,8944,7661
74,7765,7688,8642,9154,8805,8398,8472,8478,7860,8996,9665,8759,8938,7659
75,7767,7690,8641,9144,8802,8397,8473,8477,7854,9001,9665,8760,8936,7662
76,7767,7688,8642,9140,8810,8396,8476,8476,7855,8998,9660,8758,8941,7663
77,7767,7684,8645,9145,8804,8394,8475,8475,7860,8991,9660,8762,8947,7669
78,7762,7688,8642,9149,8802,8403,8476,8482,7860,8994,9658,8761,8944,7667
79,7770,7686,8640,9143,8804,8391,8470,8484,7860,9000,9660,8758,8945,7662
80,7770,7682,8641,9142,8809,8390,8472,8475,7860,8998,9662,8761,8944,7655
81,7769,7685,8640,9143,8807,8394,8474,8473,7854,8997,9665,8766,8946,7665
82,7768,7688,8642,9144,8807,8395,8472,8479,7856,8998,9662,8759,8942,7667
83,7772,7685,8643,9142,8804,8390,8469,8476,7859,8998,9658,8755,8941,7666
84,7770,7685,8641,9146,8804,8397,8473,8476,7857,9000,9659,8758,8939,7663
85,7768,7688,8639,9150,8804,8393,8472,8480,7859,9000,9659,8760,8941,7665
86,7769,7686,8641,9150,8806,8389,8470,8477,7861,8996,9657,8757,8946,7665
87,7771,7684,8642,9144,8808,8395,8470,8473,7858,8996,9658,8757,8944,7662
88,7770,7685,8644,9142,8806,8396,8467,8473,7858,9001,9662,8762,8943,7661
89,7765,7689,8645,9146,8804,8393,8467,8475,7860,8999,9662,8759,8944,7657
90,7769,7690,8644,9146,8802,8390,8467,8475,7857,8995,9663,8758,8942,7661
91,7763,7686,8642,9144,8809,8396,8473,8472,7853,9000,9663,8760,8937,7661
92,7763,7684,8645,9144,8806,8394,8475,8471,7854,9004,9663,8761,8941,7667
93,7767,7687,8643,9149,8802,8399,8477,8474,7858,8998,9657,8756,8942,7666
94,7772,7687,8639,9145,8804,8394,8472,8473,7856,8997,9659,8760,8943,7664
95,7767,7686,8639,9142,8814,8400,8475,8473,7857,8995,9659,8761,8944,7659
96,7770,7688,8643,9143,8806,8399,8474,8475,7858,8991,9657,8758,8945,7667
97,7764,7690,8643,9152,8804,8399,8478,8477,7855,8995,9657,8755,8941,7666
98,7763,7686,8642,9150,8808,8396,8478,8481,7857,9002,9664,8756,8944,7667
99,7765,7686,8644,9145,8810,8401,8479,8477,7865,9000,9662,8755,8942,7668
100,7766,7692,8647,9144,8803,8397,8477,8468,7860,8997,9656,8758,8938,7666
101,7766,7691,8645,9149,8807,8397,8479,8470,7849,8999,9658,8758,8934,7658
102,7768,7683,8641,9150,8808,8401,8475,8475,7853,9000,9659,8758,8938,7657
103,7769,7684,8640,9151,8804,8398,8471,8475,7861,8998,9657,8759,8941,7661
104,7768,7691,8642,9147,8807,8395,8478,8476,7859,8997,9659,8759,8939,7662
105,7770,7688,8643,9147,8811,8395,8479,8476,7853,8998,9660,8760,8943,7664
106,7770,7683,8640,9154,8811,8397,8475,8471,7856,8997,9657,8761,8942,7662
107,7773,7687,8642,9152,8808,8391,8470,8467,7863,8996,9659,8761,8942,7664
108,7769,7691,8646,9149,8812,8397,8474,8470,7862,8997,9658,8758,8940,7659
109,7767,7685,8645,9146,8806,8395,8472,8473,7857,8998,9661,8759,8941,7659
110,7759,7683,8642,9144,8807,8400,8475,8470,7858,8994,9661,8759,8938,7656
111,7766,7687,8644,9143,8805,8397,8473,8466,7857,8994,9660,8759,8939,7662
112,7768,7687,8645,9152,8803,8401,8478,8470,7856,8999,9660,8757,8939,7662
113,7766,7686,8643,9152,8803,8397,8479,8473,7859,9001,9662,8760,8945,7659
114,7763,7691,8643,9146,8813,8401,8477,8470,7860,8998,9658,8761,8945,7656
115,7770,7692,8642,9145,8813,8399,8469,8474,7856,8998,9659,8759,8940,7664
116,7767,7689,8642,9151,8811,8398,8473,8477,7853,9001,9659,8760,8936,7665
117,7761,7688,8647,9148,8810,8395,8476,8473,7853,8999,9656,8764,8940,7662
118,7764,7689,8648,9142,8807,8394,8473,8475,7858,8998,9658,8762,8941,7660
119,7770,7687,8643,9143,8804,8396,8472,8479,7858,9001,9660,8757,8940,7662
120,7770,7687,8641,9147,8805,8403,8474,8473,7855,9001,9657,8758,8938,7661
121,7763,7689,8645,9148,8809,8403,8479,8470,7858,9000,9653,8757,8933,7657
122,7769,7687,8643,9147,8805,8393,8473,8474,7861,9004,9654,8758,8935,7660
123,7772,7687,8638,9149,8806,8401,8468,8476,7858,8997,9658,8758,8938,7658
124,7771,7689,8644,9149,8805,8401,8470,8475,7856,8990,9662,8757,8942,7661
125,7764,7687,8647,9151,8810,8398,8477,8475,7857,8997,9659,8757,8940,7662
126,7765,7684,8644,9146,8808,8391,8471,8477,7857,8996,9658,8761,8942,7663
127,7761,7688,8647,9147,8810,8400,8473,8475,7857,8985,9656,8756,8936,7655
240,7764,7686,8652,9148,8805,8397,8475,8470,7854,8990,9661,8756,8936,7661
0,7761,7686,8646,9150,8806,8400,8474,8474,7856,8999,9662,8757,8941,7663
1,7764,7692,8643,9148,8809,8400,8471,8477,7860,9000,9660,8758,8946,7663
2,7764,7692,8648,9151,8812,8403,8480,8473,7858,9000,9658,8759,8939,7659
3,7766,7687,8644,9151,8808,8400,8480,8474,7857,8993,9655,8763,8937,7660
4,7770,7690,8641,9149,8813,8401,8475,8479,7861,8991,9650,8760,8942,7665
5,7775,7688,8642,9148,8814,8398,8472,8472,7858,9000,9653,8760,8944,7667
6,7769,7683,8644,9152,8808,8394,8474,8466,7855,9000,9660,8763,8939,7661
7,7762,7689,8643,9158,8809,8401,8480,8474,7860,8997,9660,8762,8936,7662
8,7766,7694,8643,9155,8808,8404,8478,8479,7863,9000,9660,8759,8940,7667
9,7768,7690,8642,9152,8804,8395,8474,8470,7856,8999,9661,8756,8940,7662
10,7772,7687,8642,9149,8802,8390,8472,8469,7856,8995,9660,8760,8939,7666
11,7768,7689,8643,9146,8808,8404,8475,8472,7862,8999,9658,8763,8938,7662
12,7768,7689,8641,9145,8804,8399,8469,8467,7858,8999,9661,8761,8942,7656
13,7763,7690,8637,9153,8806,8393,8471,8467,7853,8999,9660,8754,8938,7654
14,7763,7689,8640,9149,8803,8386,8475,8472,7857,8999,9659,8757,8939,7666
15,7767,7689,8640,9145,8809,8395,8481,8473,7860,8997,9658,8756,8940,7662
16,7775,7689,8641,9148,8811,8395,8479,8476,7855,9000,9658,8756,8944,7661
17,7764,7688,8646,9151,8811,8397,8483,8476,7853,8999,9656,8754,8943,7660
18,7758,7685,8643,9149,8803,8389,8477,8470,7858,8991,9660,8757,8946,7659
19,7763,7689,8640,9151,8804,8391,8473,8471,7862,8991,9660,8756,8941,7657
20,7768,7690,8645,9147,8805,8393,8473,8478,7860,9001,9659,8755,8936,7661
21,7764,7687,8645,9149,8804,8392,8475,8475,7853,9000,9659,8760,8937,7662
22,7762,7685,8639,9153,8804,8393,8473,8470,7854,8988,9659,8760,8941,7660
23,7765,7689,8642,9148,8808,8396,8472,8470,7862,8991,9660,8754,8941,7664
24,7764,7692,8644,9147,8810,8397,8475,8471,7861,9002,9658,8752,8939,7667
25,7763,7689,8644,9151,8804,8391,8472,8476,7853,9001,9660,8759,8945,7668
26,7762,7686,8642,9151,8806,8395,8471,8476,7857,8995,9656,8759,8945,7667
27,7770,7687,8641,9149,8806,8394,8471,8473,7862,8996,9654,8759,8940,7667
28,7768,7688,8641,9154,8806,8395,8478,8474,7857,8999,9655,8759,8937,7658
29,7767,7687,8642,9151,8801,8393,8475,8477,7852,8998,9662,8762,8942,7663
30,7767,7688,8640,9150,8804,8402,8470,8480,7859,8999,9661,8762,8935,7659
31,7772,7686,8641,9145,8804,8395,8468,8478,7862,8999,9659,8763,8935,7657
32,7770,7686,8645,9141,8807,8392,8476,8474,7858,8999,9658,8756,8938,7655
33,7771,7689,8646,9138,8804,8390,8473,8470,7858,8999,9657,8756,8942,7663
34,7765,7690,8641,9145,8805,8397,8471,8471,7862,8999,9661,8761,8943,7663
35,7764,7686,8640,9147,8805,8392,8471,8477,7858,9000,9662,8762,8942,7660
36,7768,7685,8643,9147,8808,8394,8476,8475,7853,8999,9656,8756,8937,7657
37,7767,7686,8644,9146,8806,8396,8473,8470,7856,8998,9656,8755,8939,7658
38,7764,7685,8644,9147,8800,8394,8472,8472,7860,8996,9659,8755,8944,7659
39,7767,7682,8645,9149,8802,8395,8474,8475,7858,8998,9656,8753,8941,7658
40,7770,7685,8641,9148,8808,8397,8474,8473,7857,8998,9658,8759,8939,7663
41,7767,7689,8639,9151,8805,8396,8474,8475,7856,8995,9662,8766,8940,7664
42,7770,7686,8643,9153,8794,8388,8471,8473,7856,8998,9664,8764,8943,7665
43,7767,7685,8647,9152,8804,8394,8475,8472,7860,9003,9663,8755,8942,7660
44,7764,7687,8646,9146,8808,8393,8474,8477,7857,9002,9664,8756,8942,7661
45,7762,7688,8641,9147,8805,8397,8474,8477,7856,8998,9658,8760,8938,7666
46,7769,7685,8645,9147,8800,8395,8473,8475,7863,8997,9659,8757,8942,7671
47,7768,7686,8646,9147,8806,8397,8479,8479,7862,8998,9661,8755,8942,7654
48,7767,7686,8639,9147,8803,8393,8474,8480,7854,8997,9659,8763,8945,7655
49,7765,7687,8639,9149,8803,8399,8470,8475,7856,8996,9656,8761,8939,7667
50,7770,7688,8647,9143,8802,8397,8467,8473,7855,9002,9659,8756,8937,7665
51,7765,7687,8648,9143,8804,8393,8470,8477,7851,9002,9661,8757,8936,7655
52,7761,7685,8644,9147,8804,8391,8473,8478,7857,8991,9661,8758,8936,7661
53,7763,7684,8640,9145,8807,8395,8476,8473,7864,8989,9662,8757,8937,7662
54,7767,7684,8639,9141,8810,8391,8472,8471,7860,8999,9661,8758,8940,7658
55,7764,7687,8643,9147,8811,8388,8467,8472,7855,8999,9659,8757,8940,7663
56,7760,7690,8644,9150,8810,8392,8471,8473,7858,8990,9657,8755,8937,7660
57,7765,7688,8641,9144,8805,8388,8472,8474,7861,8994,9660,8761,8944,7655
58,7765,7686,8642,9143,8807,8391,8472,8476,7861,9002,9658,8761,8947,7658
59,7766,7686,8645,9143,8808,8397,8470,8475,7858,9003,9661,8758,8945,7665
60,7762,7686,8642,9147,8810,8400,8473,8476,7859,9000,9664,8757,8937,7659
61,7769,7687,8642,9145,8800,8384,8473,8476,7863,9000,9666,8761,8941,7656
62,7770,7690,8643,9144,8801,8393,8474,8475,7859,9001,9659,8758,8945,7658
63,7767,7687,8641,9147,8801,8398,8471,8475,7852,9001,9656,8761,8943,7665
64,7761,7684,8640,9151,8805,8397,8473,8474,7856,9001,9656,8760,8939,7661
65,7766,7684,8643,9147,8804,8391,8474,8474,7858,9001,9657,8759,8945,7664
66,7769,7689,8645,9148,8806,8395,8475,8478,7853,9001,9655,8754,8940,7665
67,7768,7691,8642,9147,8805,8392,8472,8477,7853,9001,9658,8755,8936,7666
68,7767,7688,8640,9146,8803,8394,8471,8472,7860,9001,9661,8758,8939,7660
69,7770,7684,8641,9146,8803,8395,8472,8473,7858,9001,9661,8760,8944,7657
70,7774,7685,8643,9144,8805,8395,8474,8478,7854,9001,9660,8758,8943,7660
71,7773,7687,8641,9136,8802,8393,8473,8477,7859,9001,9657,8758,8941,7662
72,7771,7690,8640,9140,8803,8392,8469,8472,7861,9001,9660,8762,8941,7663
73,7768,7691,8643,9149,8809,8393,8470,8473,7857,9001,9661,8760,8942,7658
74,7767,7687,8641,9143,8807,8392,8468,8477,7858,9001,9659,8760,8946,7658
75,7762,7686,8639,9143,8809,8396,8473,8478,7861,9001,9659,8763,8940,7657
76,7763,7690,8642,9150,8810,8391,8472,8474,7858,9001,9664,8763,8941,7663
77,7762,7689,8641,9150,8810,8395,8474,8474,7854,9001,9662,8758,8944,7662
78,7769,7686,8638,9142,8806,8398,8470,8476,7852,9001,9661,8757,8941,7661
79,7767,7689,8640,9149,8813,8406,8473,8471,7853,9001,9661,8756,8936,7657
80,7769,7686,8643,9150,8808,8393,8473,8464,7857,9001,9661,8762,8941,7659
81,7770,7684,8645,9147,8806,8393,8476,8471,7861,9001,9659,8763,8940,7660
82,7771,7685,8648,9149,8804,8395,8472,8475,7857,9001,9661,8762,8942,7667
83,7763,7686,8646,9152,8804,8399,8471,8467,7856,9001,9661,8761,8940,7660
84,7764,7685,8644,9147,8804,8396,8471,8468,7854,9001,9660,8760,8937,7659
85,7771,7686,8644,9146,8806,8395,8473,8477,7854,9001,9661,8759,8934,7660
86,7770,7685,8639,9144,8802,8393,8473,8476,7858,9001,9661,8763,8935,7658
87,7764,7685,8639,9141,8799,8397,8467,8474,7859,9001,9660,8763,8938,7658
88,7765,7688,8642,9146,8805,8399,8466,8477,7855,9001,9659,8757,8939,7661
89,7769,7689,8644,9150,8807,8393,8472,8476,7852,9001,9660,8759,8942,7664
90,7769,7691,8648,9149,8808,8398,8480,8473,7857,9001,9658,8759,8941,7660
91,7774,7689,8649,9148,8805,8395,8474,8472,7862,9001,9658,8757,8945,7661
92,7767,7686,8643,9148,8805,8396,8472,8472,7863,9001,9656,8756,8941,7656
93,7763,7687,8639,9143,8805,8390,8468,8470,7860,9001,9664,8762,8940,7660
94,7760,7689,8640,9146,8811,8394,8473,8471,7857,9001,9667,8760,8940,7661
95,7766,7690,8643,9147,8806,8395,8473,8472,7852,9003,9665,8759,8941,7661
96,7765,7690,8643,9147,8805,8405,8474,8472,7851,8997,9661,8761,8940,7658
97,7768,7687,8643,9147,8807,8398,8474,8475,7859,8995,9661,8762,8945,7663
98,7767,7688,8641,9152,8812,8397,8478,8478,7860,8995,9659,8759,8945,7665
99,7769,7688,8643,9147,8807,8397,8475,8474,7854,8988,9659,8761,8942,7663
100,7767,7687,8644,9144,8806,8397,8472,8472,7858,8991,9658,8762,8941,7658
101,7767,7687,8643,9148,8807,8395,8470,8474,7862,9001,9657,8762,8943,7662
102,7769,7686,8641,9148,8809,8394,8473,8475,7861,8998,9662,8763,8942,7664
103,7769,7684,8643,9143,8808,8393,8474,8475,7857,8995,9661,8763,8943,7666
104,7768,7689,8645,9145,8803,8394,8473,8473,7856,8999,9658,8763,8942,7666
105,7766,7690,8639,9146,8806,8398,8476,8474,7857,8998,9660,8763,8932,7658
106,7765,7685,8639,9144,8806,8392,8476,8476,7858,9000,9661,8763,8933,7658
107,7764,7688,8645,9148,8806,8390,8472,8474,7858,8999,9659,8757,8941,7657
108,7771,7692,8644,9145,8805,8388,8468,8472,7858,8991,9663,8758,8941,7659
109,7768,7688,8639,9142,8808,8396,8473,8474,7856,8995,9663,8758,8934,7656
110,7762,7685,8640,9142,8805,8395,8467,8475,7852,9003,9663,8757,8941,7659
111,7759,7688,8644,9145,8809,8399,8468,8477,7857,9000,9662,8754,8941,7655
112,7772,7688,8646,9141,8805,8391,8471,8478,7861,8999,9665,8760,8939,7659
113,7770,7684,8647,9145,8804,8392,8478,8473,7855,9002,9663,8761,8939,7660
114,7767,7683,8645,9148,8808,8393,8472,8469,7850,9002,9662,8760,8942,7661
115,7767,7687,8641,9153,8815,8399,8470,8474,7856,9000,9661,8759,8938,7661
116,7769,7692,8640,9149,8807,8396,8470,8475,7862,8999,9661,8760,8938,7663
117,7765,7689,8643,9143,8801,8395,8470,8472,7859,8999,9660,8760,8940,7662
118,7766,7682,8645,9143,8803,8396,8468,8474,7859,8999,9658,8760,8941,7665
119,7765,7685,8643,9145,8806,8393,8473,8477,7865,8999,9663,8761,8940,7666
120,7761,7690,8645,9145,8804,8394,8476,8476,7858,8999,9667,8763,8942,7661
121,7767,7686,8650,9143,8802,8396,8470,8475,7851,8999,9665,8761,8945,7659
122,7768,7684,8647,9143,8809,8396,8471,8476,7858,8999,9658,8758,8938,7663
123,7769,7688,8641,9141,8804,8390,8469,8475,7859,9000,9657,8762,8937,7669
124,7768,7688,8640,9145,8802,8397,8466,8474,7855,8998,9659,8763,8941,7664
125,7769,7686,8642,9146,8802,8397,8466,8474,7858,8999,9663,8759,8941,7666
126,7764,7690,8642,9146,8807,8396,8476,8474,7859,9001,9661,8754,8934,7664
127,7769,7690,8641,9141,8802,8389,8472,8473,7853,8995,9661,8759,8941,7665
240,7769,7689,8639,9144,8802,8400,8472,8477,7855,8986,9659,8757,8944,7663
0,7768,7689,8640,9144,8803,8395,8473,8479,7862,8991,9657,8756,8944,7665
1,7762,7687,8643,9147,8807,8391,8475,8475,7860,8999,9659,8757,8940,7659
2,7767,7684,8644,9145,8806,8393,8468,8473,7852,8997,9660,8760,8941,7660
3,7771,7686,8642,9147,8810,8399,8470,8479,7854,8996,9653,8760,8944,7662
4,7769,7689,8643,9147,8810,8391,8473,8482,7855,8999,9655,8758,8944,7663
5,7760,7689,8645,9146,8809,8393,8468,8475,7852,9000,9666,8759,8938,7661
6,7762,7690,8643,9145,8806,8399,8467,8469,7856,8997,9665,8760,8940,7661
7,7770,7692,8642,9142,8806,8394,8471,8476,7865,8997,9661,8759,8948,7666
8,7767,7688,8642,9144,8809,8391,8472,8481,7862,8999,9661,8758,8945,7664
9,7766,7683,8642,9142,8806,8389,8470,8474,7854,8999,9662,8760,8942,7664
10,7767,7686,8643,9140,8807,8395,8474,8469,7857,8998,9660,8757,8944,7665
11,7772,7690,8645,9142,8803,8392,8473,8476,7861,8999,9663,8756,8945,7665
12,7767,7687,8643,9146,8805,8395,8470,8481,7861,8999,9661,8759,8941,7659
13,7768,7687,8643,9144,8802,8392,8467,8480,7858,8999,9659,8760,8945,7667
14,7768,7690,8645,9145,8804,8395,8474,8478,7855,8999,9656,8753,8943,7663
15,7773,7688,8646,9146,8803,8395,8469,8477,7857,8997,9658,8758,8939,7658
16,7768,7686,8645,9145,8803,8402,8468,8480,7860,8996,9658,8760,8936,7658
17,7766,7683,8642,9143,8804,8394,8471,8481,7856,8999,9660,8760,8941,7665
18,7768,7682,8640,9146,8812,8395,8473,8482,7853,8996,9661,8758,8938,7661
19,7772,7684,8644,9141,8806,8394,8463,8479,7856,8989,9661,8759,8940,7661
20,7766,7686,8643,9140,8800,8393,8467,8479,7861,8995,9663,8759,8945,7662
21,7766,7685,8640,9141,8806,8392,8472,8479,7863,9002,9664,8761,8944,7662
22,7768,7688,8642,9146,8810,8394,8467,8479,7859,8999,9665,8765,8940,7661
23,7766,7689,8647,9145,8807,8396,8468,8479,7857,8997,9667,8765,8940,7660
24,7767,7685,8650,9143,8808,8399,8472,8475,7866,8998,9666,8762,8941,7661
25,7768,7686,8644,9145,8810,8403,8478,8474,7865,8996,9662,8758,8941,7659
26,7770,7691,8640,9146,8804,8396,8474,8473,7852,8997,9663,8761,8944,7663
27,7767,7694,8644,9146,8806,8399,8474,8475,7852,9001,9661,8759,8941,7666
28,7771,7691,8647,9143,8806,8396,8475,8474,7857,9001,9659,8760,8941,7667
29,7758,7688,8642,9148,8812,8398,8476,8474,7856,9000,9659,8760,8938,7662
30,7755,7689,8640,9149,8807,8393,8471,8476,7853,8998,9662,8761,8940,7667
31,7764,7689,8645,9149,8803,8398,8475,8472,7856,8995,9660,8759,8936,7667
32,7775,7687,8647,9149,8804,8396,8475,8475,7862,8998,9662,8763,8940,7666
33,7769,7686,8644,9158,8813,8401,8478,8477,7861,9001,9664,8763,8940,7661
34,7767,7687,8644,9155,8809,8398,8481,8470,7855,8999,9665,8759,8937,7669
35,7769,7687,8648,9146,8802,8399,8479,8467,7856,8996,9660,8756,8933,7668
36,7771,7687,8647,9147,8804,8399,8472,8475,7859,8999,9655,8754,8939,7659
37,7768,7690,8643,9155,8810,8400,8478,8475,7855,8999,9659,8753,8940,7658
38,7765,7692,8641,9151,8811,8395,8481,8470,7854,8996,9662,8761,8937,7664
39,7763,7689,8640,9144,8811,8391,8478,8478,7858,8997,9664,8765,8938,7662
40,7760,7686,8642,9147,8813,8396,8478,8482,7857,8999,9666,8757,8941,7658
41,7762,7689,8644,9148,8809,8398,8478,8472,7856,8999,9661,8757,8949,7664
42,7765,7688,8642,9147,8811,8403,8477,8470,7859,8999,9656,8760,8942,7661
43,7767,7683,8644,9147,8811,8400,8474,8477,7859,8998,9667,8760,8935,7666
44,7765,7684,8644,9149,8808,8400,8479,8476,7857,9000,9667,8759,8939,7665
45,7769,7687,8641,9149,8803,8393,8477,8470,7855,8995,9658,8761,8945,7664
46,7763,7689,8643,9152,8811,8398,8475,8472,7857,8982,9659,8758,8940,7662
47,7766,7688,8646,9148,8808,8394,8474,8475,7858,8984,9666,8762,8943,7668
48,7768,7685,8645,9146,8805,8399,8478,8473,7861,8999,9657,8761,8943,7664
49,7768,7682,8645,9142,8806,8399,8472,8472,7862,9001,9655,8757,8938,7664
50,7765,7686,8645,9140,8811,8401,8471,8475,7859,8995,9661,8759,8938,7662
51,7768,7689,8642,9140,8805,8397,8473,8476,7858,8999,9662,8761,8944,7665
52,7769,7687,8641,9144,8802,8395,8476,8475,7864,9000,9656,8757,8937,7668
53,7769,7686,8641,9142,8803,8393,8471,8477,7862,8996,9655,8759,8935,7667
54,7767,7686,8643,9138,8805,8395,8470,8477,7854,8998,9661,8761,8942,7663
55,7767,7683,8642,9140,8805,8393,8471,8476,7859,8999,9663,8758,8944,7664
56,7771,7683,8639,9144,8805,8387,8470,8476,7864,8998,9660,8758,8938,7664
57,7767,7685,8640,9144,8806,8389,8470,8476,7856,8999,9657,8758,8938,7659
58,7759,7686,8644,9142,8803,8392,8469,8476,7854,8998,9658,8756,8944,7661
59,7758,7689,8640,9143,8804,8396,8476,8478,7855,8998,9658,8756,8939,7659
60,7772,7691,8639,9142,8801,8391,8477,8474,7852,8999,9658,8760,8942,7659
61,7767,7690,8641,9144,8803,8399,8476,8473,7853,8998,9655,8756,8942,7656
62,7764,7688,8641,9144,8805,8400,8471,8475,7855,9000,9661,8755,8938,7661
63,7764,7690,8641,9145,8811,8403,8476,8475,7853,8996,9664,8756,8935,7660
64,7769,7688,8642,9142,8810,8397,8476,8473,7854,8986,9662,8761,8943,7665
65,7763,7686,8643,9147,8812,8405,8476,8473,7858,8991,9660,8759,8943,7665
66,7766,7687,8645,9147,8808,8401,8473,8469,7857,9002,9660,8758,8943,7664
67,7768,7690,8642,9143,8811,8397,8473,8469,7858,8999,9659,8762,8942,7661
68,7770,7687,8640,9143,8812,8396,8475,8476,7859,8995,9663,8763,8941,7667
69,7772,7685,8644,9148,8807,8399,8480,8477,7858,9001,9662,8755,8938,7664
70,7769,7685,8643,9147,8802,8398,8480,8474,7857,9000,9658,8755,8937,7659
71,7766,7688,8641,9147,8805,8400,8480,8476,7855,8996,9663,8761,8940,7664
72,7770,7691,8640,9151,8809,8398,8484,8473,7857,8998,9661,8761,8942,7662
73,7772,7692,8643,9151,8807,8395,8483,8467,7854,8998,9660,8758,8939,7657
74,7763,7692,8649,9152,8809,8400,8485,8472,7850,8995,9661,8754,8935,7657
75,7762,7688,8648,9151,8807,8396,8482,8476,7852,8996,9662,8760,8941,7662
76,7760,7687,8639,9148,8811,8398,8480,8473,7856,9002,9661,8761,8940,7660
77,7762,7686,8640,9142,8808,8394,8472,8473,7859,9002,9663,8759,8941,7664
78,7758,7686,8645,9143,8810,8396,8476,8472,7860,8998,9662,8758,8940,7658
79,7764,7686,8641,9146,8810,8392,8474,8473,7853,9001,9664,8762,8939,7659
80,7764,7688,8640,9149,8811,8401,8475,8480,7852,8999,9660,8759,8937,7662
81,7766,7687,8645,9145,8807,8396,8475,8480,7863,8990,9659,8761,8939,7663
82,7766,7689,8642,9149,8809,8394,8475,8475,7867,8992,9662,8761,8938,7657
83,7769,7690,8637,9150,8809,8398,8471,8476,7860,9003,9661,8759,8942,7663
84,7765,7687,8644,9150,8810,8404,8473,8477,7858,8999,9658,8758,8943,7667
85,7763,7686,8650,9148,8806,8397,8475,8473,7859,8987,9662,8763,8941,7666
86,7768,7687,8647,9147,8805,8390,8473,8473,7861,8990,9662,8764,8942,7662
87,7766,7686,8646,9147,8811,8395,8470,8474,7863,9001,9658,8759,8944,7665
88,7766,7686,8644,9149,8809,8397,8467,8472,7859,9001,9661,8760,8938,7667
89,7768,7686,8636,9145,8805,8398,8469,8472,7859,8999,9659,8764,8935,7661
90,7765,7685,8639,9143,8802,8394,8470,8474,7858,9001,9659,8758,8939,7661
91,7763,7685,8643,9148,8803,8396,8470,8475,7857,9001,9659,8750,8937,7663
92,7773,7685,8639,9143,8801,8392,8464,8474,7859,8998,9659,8761,8943,7666
93,7767,7687,8640,9142,8803,8395,8467,8474,7861,9000,9660,8763,8946,7662
94,7762,7688,8646,9144,8800,8389,8469,8476,7861,8999,9664,8759,8947,7663
95,7762,7686,8642,9149,8806,8392,8475,8474,7862,8998,9660,8760,8941,7659
96,7766,7684,8638,9146,8806,8393,8472,8472,7862,9001,9661,8759,8941,7662
97,7762,7687,8639,9146,8808,8400,8474,8474,7861,8998,9660,8752,8940,7664
98,7769,7687,8640,9147,8807,8392,8470,8475,7858,8993,9657,8757,8940,7665
99,7764,7687,8641,9150,8808,8392,8471,8474,7854,8995,9659,8764,8936,7660
100,7764,7688,8640,9145,8806,8393,8471,8472,7859,8999,9663,8760,8940,7659
101,7768,7691,8638,9140,8809,8397,8475,8473,7865,8996,9657,8759,8945,7661
102,7766,7688,8640,9145,8811,8399,8475,8477,7854,8996,9656,8764,8943,7663
103,7768,7686,8645,9151,8809,8397,8474,8476,7852,8997,9664,8762,8938,7664
104,7772,7691,8644,9149,8806,8396,8475,8472,7863,8997,9662,8756,8941,7661
105,7768,7695,8643,9148,8806,8402,8475,8472,7863,8999,9664,8762,8945,7662
106,7760,7691,8645,9151,8812,8405,8476,8475,7858,8999,9670,8765,8942,7663
107,7767,7689,8645,9149,8809,8391,8476,8472,7858,8995,9664,8763,8939,7665
108,7766,7691,8643,9152,8811,8398,8475,8470,7856,8996,9657,8757,8935,7655
109,7768,7690,8645,9153,8810,8404,8469,8472,7856,9002,9663,8760,8939,7659
110,7772,7687,8642,9149,8807,8404,8471,8473,7860,8995,9662,8763,8941,7663
111,7774,7685,8641,9147,8804,8396,8471,8471,7855,8982,9657,8761,8939,7666
112,7765,7686,8645,9153,8808,8400,8471,8472,7857,8981,9659,8755,8930,7658
113,7765,7690,8645,9146,8800,8392,8466,8476,7863,8990,9661,8762,8935,7662
114,7765,7692,8640,9140,8805,8393,8473,8474,7860,9000,9660,8763,8943,7663
115,7764,7685,8643,9143,8811,8392,8472,8472,7856,9007,9663,8757,8945,7662
116,7758,7682,8645,9148,8811,8395,8471,8476,7860,9004,9658,8757,8942,7658
117,7761,7687,8641,9145,8806,8392,8473,8475,7862,8998,9655,8763,8944,7662
118,7767,7688,8638,9146,8805,8395,8475,8474,7860,9000,9661,8762,8943,7666
119,7766,7685,8642,9152,8806,8400,8475,8477,7857,9000,9659,8759,8941,7663
120,7766,7686,8644,9152,8809,8398,8474,8478,7856,8995,9657,8759,8944,7661
121,7768,7688,8643,9149,8810,8397,8473,8473,7859,8998,9662,8761,8945,7662
122,7773,7690,8647,9149,8806,8397,8473,8470,7862,9001,9664,8763,8942,7666
123,7768,7690,8645,9152,8810,8399,8476,8471,7860,8993,9658,8759,8941,7663
124,7768,7687,8641,9150,8805,8389,8473,8471,7856,8991,9658,8760,8947,7664
125,7764,7687,8645,9150,8805,8395,8473,8474,7856,9001,9659,8761,8944,7666
126,7763,7686,8648,9147,8807,8397,8475,8471,7858,9000,9662,8761,8941,7672
127,7763,7687,8641,9149,8808,8397,8477,8470,7857,8993,9658,8757,8936,7664
240,7771,7689,8643,9148,8800,8392,8466,8474,7856,8995,9658,8757,8940,7664
0,7764,7689,8648,9147,8802,8400,8470,8475,7859,8998,9667,8756,8939,7663
1,7762,7686,8642,9141,8803,8397,8475,8473,7854,8997,9674,8756,8941,7665
2,7761,7687,8636,9144,8805,8394,8475,8477,7852,8999,9668,8757,8942,7664
3,7766,7686,8641,9146,8805,8389,8469,8480,7861,8997,9666,8758,8943,7663
4,7768,7686,8644,9147,8809,8394,8472,8474,7861,8996,9663,8758,8939,7660
5,7768,7690,8643,9146,8804,8399,8471,8471,7850,8998,9656,8760,8935,7663
6,7766,7687,8645,9146,8804,8398,8471,8476,7853,9000,9656,8759,8937,7664
7,7766,7681,8644,9146,8808,8396,8478,8478,7861,8999,9657,8760,8942,7661
8,7768,7684,8641,9146,8805,8396,8477,8477,7858,8999,9660,8763,8946,7662
9,7766,7686,8643,9147,8804,8400,8473,8472,7855,8998,9662,8762,8938,7659
10,7767,7684,8646,9148,8807,8399,8473,8470,7854,8998,9662,8762,8937,7663
11,7763,7689,8647,9149,8813,8402,8476,8472,7857,8995,9660,8762,8943,7662
12,7767,7692,8644,9147,8807,8396,8472,8476,7859,8994,9664,8763,8943,7664
13,7768,7684,8639,9146,8808,8399,8475,8475,7862,8996,9662,8762,8939,7662
14,7770,7680,8640,9143,8804,8395,8471,8473,7863,9003,9659,8764,8944,7665
15,7768,7683,8645,9146,8806,8398,8473,8473,7858,8997,9658,8761,8935,7660
16,7771,7683,8644,9151,8802,8396,8475,8474,7853,8982,9659,8759,8931,7666
17,7766,7689,8642,9152,8801,8401,8475,8473,7856,8985,9658,8756,8936,7660
18,7766,7690,8646,9146,8803,8397,8470,8471,7856,9004,9660,8757,8938,7656
19,7767,7683,8648,9151,8806,8399,8478,8474,7854,9001,9660,8756,8932,7660
20,7770,7683,8644,9151,8805,8401,8479,8476,7856,8980,9657,8756,8937,7665
21,7767,7690,8639,9148,8808,8403,8471,8472,7856,8985,9657,8760,8937,7662
22,7765,7689,8638,9146,8812,8398,8473,8473,7853,9003,9662,8760,8932,7662
23,7770,7690,8643,9147,8812,8393,8478,8477,7855,9000,9663,8756,8939,7665
24,7771,7691,8645,9149,8811,8394,8472,8474,7859,8996,9658,8757,8940,7660
25,7766,7686,8646,9147,8806,8394,8466,8470,7862,9002,9657,8761,8935,7658
26,7761,7686,8647,9148,8810,8402,8472,8475,7857,8991,9657,8758,8932,7659
27,7769,7687,8643,9149,8813,8399,8474,8476,7851,8982,9661,8760,8938,7663
28,7767,7682,8639,9149,8813,8400,8478,8471,7856,8996,9660,8764,8941,7661
29,7764,7686,8642,9145,8805,8396,8477,8473,7861,9001,9661,8764,8944,7662
30,7762,7689,8643,9150,8807,8401,8477,8475,7860,8994,9657,8761,8936,7659
31,7769,7681,8639,9149,8804,8396,8473,8473,7858,8998,9657,8765,8937,7662
32,7766,7680,8640,9147,8806,8398,8477,8475,7858,9002,9659,8764,8941,7664
33,7766,7685,8648,9147,8806,8393,8475,8478,7857,8999,9662,8760,8941,7667
34,7764,7687,8646,9148,8806,8393,8476,8474,7860,8998,9661,8755,8937,7663
35,7765,7686,8640,9145,8801,8394,8477,8473,7862,9002,9658,8758,8941,7667
36,7766,7691,8643,9146,8804,8401,8476,8476,7857,8998,9658,8761,8941,7663
37,7766,7690,8646,9142,8807,8398,8468,8473,7856,8991,9660,8762,8940,7659
38,7765,7686,8643,9145,8808,8393,8470,8471,7862,8989,9661,8760,8940,7665
39,7770,7688,8646,9152,8810,8394,8474,8474,7863,8992,9658,8759,8938,7667
40,7772,7689,8648,9149,8809,8395,8471,8473,7859,8994,9658,8759,8942,7663
41,7763,7688,8639,9143,8811,8398,8473,8473,7862,8998,9658,8756,8941,7660
42,7767,7687,8640,9143,8814,8396,8474,8476,7864,8999,9659,8755,8941,7660
43,7772,7688,8646,9149,8812,8395,8473,8476,7853,8997,9656,8756,8942,7655
44,7769,7687,8643,9149,8805,8393,8471,8476,7849,8997,9658,8760,8942,7662
45,7758,7689,8639,9148,8814,8400,8476,8476,7858,8999,9657,8759,8934,7660
46,7765,7689,8643,9144,8812,8397,8471,8474,7862,8997,9659,8759,8939,7662
47,7767,7686,8646,9148,8804,8403,8473,8474,7859,8998,9661,8757,8944,7663
48,7768,7686,8641,9147,8798,8393,8471,8477,7855,8998,9662,8761,8943,7667
49,7763,7686,8641,9143,8805,8391,8467,8478,7855,8997,9660,8762,8938,7664
50,7768,7683,8645,9141,8805,8393,8468,8473,7854,8997,9664,8762,8942,7664
51,7772,7683,8643,9153,8804,8397,8476,8470,7858,8998,9663,8761,8940,7658
52,7768,7682,8639,9155,8802,8392,8475,8475,7862,8994,9658,8763,8937,7661
53,7764,7681,8646,9143,8801,8394,8472,8476,7860,8990,9658,8759,8935,7663
54,7767,7682,8650,9137,8802,8394,8474,8473,7857,8992,9660,8757,8937,7660
55,7769,7687,8644,9143,8806,8393,8475,8475,7856,8997,9659,8761,8941,7661
56,7767,7689,8646,9147,8809,8398,8470,8477,7858,8996,9660,8761,8939,7663
57,7769,7687,8649,9143,8806,8399,8466,8473,7857,8995,9660,8760,8937,7665
58,7770,7686,8644,9144,8806,8399,8469,8472,7861,8996,9658,8758,8938,7663
59,7770,7686,8643,9143,8808,8392,8469,8478,7859,8996,9662,8761,8947,7666
60,7762,7687,8645,9143,8808,8393,8471,8482,7854,8996,9660,8759,8943,7662
61,7762,7688,8644,9144,8800,8394,8468,8478,7854,8996,9656,8757,8936,7662
62,7760,7690,8641,9148,8805,8399,8475,8473,7859,8996,9656,8757,8936,7659
63,7765,7687,8642,9141,8809,8389,8474,8473,7860,8996,9665,8762,8945,7662
64,7764,7684,8644,9140,8808,8390,8473,8475,7859,8996,9664,8760,8941,7660
65,7768,7686,8647,9145,8801,8392,8471,8475,7860,8996,9661,8757,8935,7662
66,7769,7689,8644,9150,8809,8400,8476,8475,7858,8996,9663,8757,8937,7659
67,7769,7688,8641,9149,8810,8399,8475,8472,7853,8996,9663,8760,8943,7661
68,7766,7686,8642,9148,8806,8401,8474,8472,7853,8996,9658,8761,8943,7664
69,7765,7687,8645,9143,8803,8399,8472,8474,7855,8996,9660,8762,8946,7665
70,7764,7689,8646,9144,8805,8395,8471,8472,7856,8996,9662,8761,8942,7662
71,7763,7688,8645,9149,8806,8397,8474,8471,7856,8996,9658,8757,8935,7665
72,7765,7686,8645,9147,8804,8398,8474,8474,7854,8996,9658,8758,8939,7667
73,7767,7688,8641,9143,8806,8398,8475,8476,7858,8996,9660,8762,8942,7660
74,7768,7687,8638,9144,8802,8393,8471,8475,7865,8996,9659,8762,8943,7661
75,7764,7686,8643,9145,8804,8394,8470,8476,7861,8996,9656,8758,8940,7659
76,7767,7689,8649,9139,8810,8392,8467,8475,7856,8996,9660,8759,8940,7658
77,7765,7690,8641,9142,8809,8400,8472,8473,7858,8996,9659,8757,8939,7658
78,7768,7685,8640,9143,8797,8395,8469,8474,7854,8996,9657,8757,8940,7665
79,7765,7686,8646,9142,8806,8395,8470,8474,7853,8996,9656,8756,8938,7658
80,7767,7687,8641,9137,8813,8395,8468,8472,7860,8996,9659,8759,8942,7659
81,7764,7687,8635,9144,8807,8400,8467,8477,7861,8996,9659,8758,8938,7659
82,7770,7688,8641,9146,8802,8388,8466,8480,7857,8996,9665,8758,8940,7662
83,7769,7686,8639,9144,8810,8390,8475,8474,7859,8996,9667,8757,8945,7661
84,7766,7682,8633,9143,8809,8391,8473,8474,7861,8996,9659,8761,8947,7663
85,7765,7683,8639,9143,8808,8392,8467,8480,7858,8994,9660,8761,8943,7664
86,7767,7688,8642,9139,8805,8392,8470,8481,7856,8997,9665,8760,8946,7666
87,7765,7687,8637,9146,8804,8394,8473,8477,7859,8997,9661,8763,8944,7665
88,7762,7679,8639,9151,8806,8395,8471,8474,7858,8988,9658,8761,8940,7665
89,7764,7679,8641,9146,8807,8395,8469,8474,7856,8990,9663,8761,8943,7669
90,7768,7689,8638,9148,8806,8401,8473,8478,7858,9002,9662,8760,8943,7665
91,7773,7693,8641,9155,8802,8396,8473,8477,7856,9003,9660,8760,8940,7664
92,7768,7688,8644,9154,8805,8396,8472,8474,7854,9001,9658,8759,8934,7662
93,7770,7684,8640,9144,8803,8394,8469,8474,7860,9004,9658,8761,8939,7668
94,7770,7688,8635,9142,8807,8398,8474,8473,7861,9001,9661,8758,8938,7662
95,7769,7691,8638,9140,8807,8392,8471,8471,7849,9000,9666,8759,8939,7660
96,7765,7691,8639,9145,8808,8394,8473,8472,7855,9003,9662,8763,8941,7660
97,7768,7686,8640,9145,8804,8392,8475,8474,7865,9000,9658,8765,8944,7664
98,7764,7683,8648,9145,8809,8398,8478,8474,7860,8996,9656,8759,8941,7661
99,7768,7682,8649,9146,8809,8395,8473,8472,7855,8997,9662,8758,8944,7662
100,7768,7685,8642,9151,8809,8395,8473,8473,7860,8998,9663,8762,8941,7660
101,7765,7687,8643,9148,8808,8396,8472,8477,7860,8996,9658,8763,8937,7656
102,7767,7688,8647,9147,8805,8400,8474,8477,7857,8996,9659,8759,8941,7654
103,7768,7688,8644,9151,8807,8399,8477,8474,7854,8998,9662,8756,8940,7659
104,7766,7687,8643,9150,8814,8399,8478,8474,7853,9000,9658,8758,8937,7665
105,7765,7689,8645,9151,8816,8401,8479,8470,7855,8999,9653,8761,8939,7665
106,7770,7693,8645,9152,8810,8398,8475,8466,7855,8999,9657,8765,8942,7666
107,7766,7692,8642,9155,8810,8403,8477,8467,7852,9000,9658,8762,8941,7663
108,7768,7690,8640,9160,8808,8399,8479,8471,7855,8999,9660,8760,8944,7663
109,7769,7690,8645,9162,8807,8398,8483,8475,7857,8999,9657,8759,8940,7663
110,7770,7688,8646,9153,8803,8399,8483,8476,7851,8998,9652,8761,8939,7670
111,7764,7687,8643,9152,8808,8406,8486,8475,7854,8991,9655,8757,8935,7665
112,7768,7688,8642,9151,8809,8397,8475,8476,7862,8991,9664,8757,8936,7666
113,7768,7688,8640,9146,8807,8395,8469,8476,7866,8999,9657,8754,8937,7662
114,7767,7684,8638,9138,8804,8386,8467,8477,7860,9001,9651,8756,8942,7660
115,7767,7683,8636,9139,8804,8383,8464,8479,7860,8998,9658,8760,8943,7657
116,7773,7682,8637,9140,8798,8382,8460,8479,7864,9001,9665,8760,8945,7658
117,7766,7681,8640,9137,8804,8387,8462,8479,7863,9000,9657,8755,8944,7658
118,7759,7684,8639,9132,8804,8382,8458,8480,7859,8996,9656,8755,8942,7659
119,7760,7684,8631,9136,8796,8382,8458,8479,7859,8998,9665,8757,8942,7662
120,7762,7685,8631,9138,8798,8391,8465,8477,7862,9000,9664,8757,8942,7664
121,7761,7688,8641,9139,8805,8389,8463,8475,7861,8998,9659,8761,8942,7665
122,7761,7685,8642,9144,8807,8392,8464,8476,7862,8996,9661,8764,8941,7659
123,7768,7685,8636,9146,8805,8399,8469,8476,7863,8999,9669,8761,8944,7663
124,7768,7689,8638,9147,8807,8402,8472,8473,7860,8995,9668,8758,8943,7665
125,7770,7689,8645,9150,8801,8394,8470,8472,7859,8991,9665,8766,8940,7665
126,7764,7688,8646,9157,8805,8403,8479,8474,7858,8999,9665,8768,8940,7662
127,7769,7690,8646,9155,8808,8404,8482,8467,7851,9003,9667,8763,8941,7668
240,7769,7692,8648,9156,8813,8405,8487,8463,7847,8996,9661,8757,8930,7668
0,7768,7693,8651,9158,8810,8403,8486,8472,7850,8998,9659,8765,8933,7670
1,7766,7693,8648,9159,8812,8407,8486,8476,7855,9004,9665,8771,8938,7666
2,7767,7690,8644,9152,8811,8400,8481,8468,7851,8991,9668,8765,8936,7667
3,7764,7690,8646,9152,8808,8403,8479,8464,7849,8970,9667,8759,8936,7665
4,7766,7689,8647,9149,8806,8401,8479,8473,7852,8974,9667,8760,8942,7661
5,7769,7686,8641,9147,8808,8398,8477,8478,7854,8992,9663,8757,8939,7658
6,7770,7683,8640,9144,8803,8395,8471,8472,7857,9001,9657,8753,8939,7664
7,7772,7683,8643,9141,8803,8391,8467,8476,7860,9000,9655,8758,8947,7665
8,7771,7684,8641,9140,8808,8388,8467,8487,7859,8989,9658,8761,8942,7658
9,7770,7686,8638,9144,8806,8389,8464,8481,7860,8985,9660,8759,8939,7660
10,7765,7684,8639,9148,8808,8393,8470,8471,7865,8997,9654,8760,8940,7660
11,7766,7683,8643,9145,8807,8389,8472,8474,7863,9002,9656,8762,8943,7663
12,7766,7688,8641,9145,8803,8398,8472,8476,7861,8998,9667,8755,8938,7660
13,7773,7688,8640,9146,8801,8397,8471,8472,7861,8999,9669,8760,8940,7661
14,7769,7685,8643,9151,8814,8397,8478,8473,7860,9001,9657,8769,8944,7659
15,7770,7688,8644,9149,8811,8393,8472,8475,7862,8998,9660,8769,8945,7663
16,7770,7694,8642,9150,8805,8399,8471,8474,7861,8998,9663,8758,8941,7661
17,7775,7688,8643,9148,8805,8392,8473,8472,7859,8998,9661,8760,8943,7668
18,7771,7683,8642,9151,8812,8395,8476,8471,7861,8998,9661,8767,8941,7667
19,7768,7689,8642,9152,8809,8395,8471,8470,7857,8995,9665,8768,8940,7666
20,7769,7694,8646,9149,8803,8399,8476,8469,7853,8989,9661,8760,8937,7664
21,7774,7690,8647,9147,8806,8400,8480,8470,7857,8991,9659,8758,8937,7662
22,7772,7685,8642,9151,8806,8400,8475,8472,7860,8997,9660,8761,8939,7659
23,7769,7687,8641,9152,8805,8401,8475,8473,7855,9002,9657,8762,8941,7663
24,7773,7693,8645,9152,8806,8403,8482,8472,7859,8999,9654,8762,8942,7668
25,7772,7692,8642,9151,8806,8405,8485,8473,7862,8987,9652,8759,8940,7662
26,7766,7685,8642,9145,8805,8397,8481,8473,7855,8987,9655,8758,8942,7663
27,7763,7687,8646,9147,8813,8397,8481,8472,7856,8999,9660,8756,8939,7661
28,7770,7690,8647,9149,8811,8392,8474,8475,7860,9004,9663,8762,8943,7660
29,7763,7685,8639,9149,8809,8392,8471,8478,7861,8993,9657,8763,8941,7659
30,7763,7684,8637,9146,8807,8388,8469,8475,7860,8989,9658,8755,8944,7663
31,7766,7691,8644,9150,8809,8392,8471,8477,7863,8997,9662,8752,8944,7661
32,7770,7687,8644,9139,8802,8385,8466,8482,7861,9002,9660,8759,8945,7663
33,7764,7682,8640,9131,8806,8389,8468,8480,7858,9001,9657,8758,8944,7662
34,7766,7682,8637,9131,8803,8388,8470,8476,7858,8999,9656,8754,8944,7666
35,7767,7682,8632,9130,8802,8391,8476,8477,7861,8999,9648,8754,8940,7664
36,7769,7681,8629,9121,8800,8389,8475,8475,7864,8997,9641,8752,8943,7663
37,7770,7681,8636,9122,8802,8396,8478,8477,7862,8999,9643,8747,8945,7659
38,7771,7683,8636,9129,8805,8398,8478,8482,7860,9001,9648,8746,8940,7659
39,7771,7685,8632,9132,8805,8392,8466,8477,7863,8997,9652,8752,8939,7666
40,7768,7686,8638,9136,8805,8394,8463,8471,7861,8999,9654,8758,8941,7665
41,7771,7690,8647,9146,8803,8395,8471,8473,7857,9000,9655,8762,8940,7663
42,7771,7694,8649,9154,8805,8390,8475,8476,7854,8997,9655,8760,8936,7660
43,7770,7691,8647,9146,8804,8388,8465,8471,7853,8997,9661,8762,8940,7662
44,7765,7688,8643,9142,8808,8401,8470,8469,7855,9001,9663,8762,8941,7659
45,7767,7688,8642,9146,8810,8399,8479,8472,7860,9001,9663,8763,8942,7663
46,7764,7687,8642,9146,8817,8403,8483,8472,7861,8999,9658,8760,8935,7658
47,7766,7687,8639,9141,8816,8402,8477,8473,7856,8998,9657,8758,8933,7660
48,7762,7691,8638,9147,8815,8401,8480,8475,7856,8999,9656,8759,8933,7658
49,7764,7690,8641,9145,8813,8393,8480,8471,7854,9000,9655,8761,8937,7660
50,7764,7687,8645,9147,8814,8399,8479,8469,7854,8997,9655,8759,8938,7660
51,7766,7691,8647,9151,8806,8398,8475,8471,7853,8998,9659,8762,8940,7664
52,7766,7695,8646,9158,8809,8397,8472,8470,7848,9000,9663,8763,8943,7663
53,7768,7694,8648,9157,8813,8395,8468,8469,7846,8993,9666,8761,8948,7667
54,7766,7692,8647,9156,8810,8396,8471,8470,7850,8990,9665,8762,8948,7670
55,7765,7689,8644,9157,8808,8399,8475,8470,7852,8998,9659,8768,8945,7666
56,7770,7689,8646,9157,8810,8403,8475,8471,7852,9000,9657,8768,8940,7661
57,7768,7692,8646,9151,8811,8408,8475,8475,7858,8995,9659,8759,8937,7662
58,7765,7688,8641,9145,8808,8402,8475,8476,7860,8996,9662,8756,8938,7670
59,7766,7683,8636,9146,8811,8397,8479,8479,7860,8999,9657,8756,8935,7664
60,7771,7683,8638,9140,8806,8393,8472,8478,7864,8998,9652,8757,8937,7661
61,7766,7684,8639,9137,8804,8395,8469,8476,7864,8999,9647,8754,8943,7662
62,7769,7681,8637,9136,8802,8387,8468,8478,7859,8999,9652,8755,8945,7666
63,7768,7683,8636,9135,8802,8387,8466,8478,7862,9001,9657,8758,8940,7661
64,7767,7685,8639,9135,8799,8383,8457,8473,7864,9002,9659,8761,8943,7664
65,7759,7686,8644,9145,8804,8391,8465,8475,7858,8999,9654,8759,8937,7661
66,7763,7684,8643,9147,8799,8387,8468,8480,7860,8999,9657,8760,8938,7661
67,7768,7686,8642,9149,8802,8389,8468,8475,7863,8999,9664,8761,8944,7661
68,7766,7688,8644,9152,8805,8391,8469,8470,7856,8999,9668,8761,8946,7664
69,7761,7687,8647,9160,8805,8398,8471,8471,7853,8998,9670,8764,8944,7663
70,7766,7686,8642,9165,8805,8397,8469,8468,7855,8999,9671,8769,8943,7663
71,7768,7689,8642,9163,8810,8395,8468,8466,7856,9000,9671,8768,8943,7660
72,7763,7690,8647,9159,8808,8395,8471,8469,7856,9001,9670,8763,8941,7661
73,7767,7690,8651,9159,8804,8391,8471,8466,7855,8997,9671,8766,8940,7669
74,7765,7690,8649,9159,8811,8395,8471,8464,7852,8995,9670,8770,8940,7668
75,7761,7690,8648,9155,8808,8396,8469,8471,7852,8999,9669,8772,8943,7664
76,7763,7688,8648,9159,8806,8400,8469,8473,7856,9000,9667,8770,8939,7659
77,7769,7685,8648,9161,8806,8394,8463,8470,7855,8996,9671,8772,8940,7665
78,7758,7686,8647,9163,8805,8394,8463,8471,7858,8994,9673,8766,8939,7658
79,7760,7686,8648,9162,8801,8392,8463,8472,7859,8999,9673,8765,8939,7658
80,7764,7687,8646,9166,8808,8402,8466,8467,7856,8997,9673,8770,8939,7660
81,7762,7688,8646,9166,8805,8397,8462,8468,7858,8990,9678,8772,8946,7664
82,7758,7687,8648,9164,8805,8393,8464,8471,7861,8992,9676,8766,8944,7660
83,7767,7684,8647,9155,8805,8388,8462,8470,7857,9000,9673,8765,8942,7661
84,7765,7680,8643,9155,8807,8394,8468,8471,7857,9000,9669,8764,8938,7661
85,7758,7681,8642,9155,8804,8393,8470,8474,7863,8997,9664,8761,8939,7659
86,7760,7686,8641,9149,8804,8391,8468,8476,7863,8999,9661,8760,8942,7656
87,7765,7687,8642,9147,8804,8393,8469,8477,7859,8999,9662,8764,8941,7657
88,7764,7686,8645,9149,8805,8394,8472,8478,7861,8997,9663,8766,8945,7663
89,7760,7688,8642,9144,8807,8395,8470,8477,7862,8997,9663,8763,8944,7665
90,7766,7686,8640,9138,8802,8393,8464,8474,7863,8997,9666,8763,8941,7664
91,7768,7681,8642,9145,8804,8400,8470,8478,7863,8997,9665,8763,8942,7662
92,7766,7678,8638,9145,8804,8396,8470,8479,7860,8999,9660,8768,8947,7666
93,7758,7685,8636,9144,8806,8399,8471,8475,7862,8999,9656,8766,8941,7662
94,7762,7691,8641,9147,8801,8398,8472,8472,7862,8997,9664,8764,8936,7663
95,7767,7686,8643,9152,8803,8398,8474,8473,7857,8998,9671,8764,8935,7660
96,7771,7681,8642,9149,8802,8393,8471,8470,7856,8998,9669,8769,8942,7665
97,7764,7689,8642,9148,8802,8399,8472,8472,7863,8996,9664,8766,8938,7663
98,7769,7690,8642,9145,8803,8392,8466,8476,7862,8995,9663,8763,8938,7661
99,7773,7684,8645,9148,8808,8392,8471,8472,7858,8996,9664,8761,8943,7659
100,7769,7686,8646,9148,8805,8392,8478,8472,7853,8996,9664,8759,8944,7663
101,7763,7691,8644,9147,8808,8392,8478,8478,7853,8995,9659,8759,8937,7661
102,7767,7687,8647,9143,8808,8391,8474,8476,7860,8996,9655,8761,8941,7661
103,7768,7683,8650,9145,8807,8396,8476,8472,7862,8995,9659,8761,8942,7664
104,7765,7685,8643,9148,8814,8396,8477,8474,7853,8996,9660,8756,8938,7661
105,7768,7688,8639,9142,8817,8392,8475,8476,7855,8995,9655,8753,8942,7657
106,7767,7683,8642,9142,8812,8401,8476,8476,7865,8995,9652,8755,8943,7658
107,7769,7681,8644,9145,8806,8402,8473,8476,7862,8998,9655,8760,8944,7667
108,7767,7688,8641,9146,8812,8400,8476,8474,7857,9001,9656,8757,8944,7667
109,7772,7688,8640,9142,8808,8387,8470,8476,7860,8999,9663,8756,8943,7668
110,7771,7679,8641,9146,8804,8390,8468,8481,7861,8997,9665,8758,8940,7669
111,7771,7678,8642,9146,8801,8390,8469,8480,7859,8997,9663,8763,8947,7671
112,7767,7686,8641,9143,8809,8395,8471,8474,7860,8998,9661,8762,8947,7665
113,7768,7687,8641,9140,8807,8392,8467,8477,7860,8999,9664,8761,8945,7666
114,7767,7685,8643,9143,8803,8397,8471,8483,7860,9001,9663,8759,8941,7664
115,7767,7687,8643,9142,8801,8390,8467,8479,7860,9000,9662,8761,8944,7665
116,7766,7688,8641,9144,8804,8385,8467,8472,7864,8999,9661,8759,8945,7665
117,7769,7686,8639,9141,8806,8384,8472,8469,7863,8998,9663,8757,8942,7667
118,7765,7686,8639,9141,8805,8396,8474,8473,7857,8996,9665,8759,8937,7664
119,7763,7689,8641,9144,8802,8398,8471,8477,7858,8997,9662,8760,8940,7664
120,7768,7689,8645,9147,8807,8392,8471,8475,7862,8999,9656,8759,8946,7668
121,7768,7688,8648,9147,8812,8392,8472,8471,7860,8999,9655,8757,8941,7662
122,7767,7688,8647,9146,8808,8394,8472,8473,7857,8999,9660,8757,8936,7662
123,7765,7687,8643,9148,8807,8401,8476,8475,7857,8999,9658,8760,8939,7664
124,7766,7687,8641,9142,8806,8398,8473,8472,7857,8999,9661,8764,8945,7665
125,7761,7689,8643,9143,8807,8398,8475,8472,7858,8999,9661,8758,8942,7657
126,7765,7687,8644,9149,8807,8394,8475,8475,7858,8999,9662,8754,8944,7663
127,7765,7684,8642,9148,8814,8402,8477,8477,7859,8999,9660,8757,8944,7665
240,7769,7685,8640,9140,8809,8395,8474,8478,7860,8999,9661,8756,8941,7665
0,7770,7687,8642,9144,8808,8396,8472,8477,7859,8999,9663,8751,8939,7664
1,7769,7685,8646,9145,8808,8394,8469,8475,7856,8999,9664,8762,8944,7671
2,7766,7685,8645,9144,8810,8391,8472,8474,7857,8999,9658,8765,8941,7668
3,7772,7686,8640,9146,8803,8384,8471,8475,7861,8999,9659,8758,8939,7665
4,7773,7687,8640,9150,8804,8389,8474,8474,7861,8999,9664,8755,8939,7662
5,7771,7689,8643,9148,8804,8394,8474,8475,7858,8999,9663,8758,8946,7665
6,7772,7690,8644,9145,8800,8396,8473,8475,7863,8999,9658,8758,8948,7670
7,7776,7691,8640,9140,8803,8392,8474,8471,7860,8999,9658,8754,8940,7670
8,7777,7693,8642,9138,8811,8389,8476,8471,7851,8999,9659,8753,8938,7665
9,7772,7692,8638,9140,8805,8398,8479,8477,7858,8999,9652,8753,8938,7660
10,7770,7684,8630,9135,8799,8396,8475,8478,7865,8999,9648,8754,8935,7664
11,7767,7681,8634,9134,8811,8392,8474,8477,7862,8999,9645,8750,8933,7661
12,7770,7688,8639,9134,8812,8389,8472,8483,7858,8999,9651,8753,8941,7661
13,7768,7688,8634,9133,8806,8396,8475,8484,7859,8999,9652,8752,8938,7663
14,7772,7682,8636,9131,8797,8392,8471,8477,7859,8999,9653,8752,8938,7667
15,7766,7686,8640,9134,8804,8390,8475,8473,7862,8999,9651,8753,8942,7659
16,7766,7691,8638,9127,8803,8382,8472,8475,7863,8999,9651,8755,8947,7663
17,7767,7685,8640,9126,8803,8390,8470,8480,7861,8999,9648,8750,8945,7666
18,7772,7682,8636,9131,8805,8392,8471,8480,7859,8999,9647,8748,8944,7665
19,7773,7690,8628,9137,8814,8394,8478,8475,7859,8997,9649,8751,8941,7660
20,7772,7693,8634,9136,8810,8393,8478,8472,7860,9000,9648,8757,8944,7665
21,7770,7687,8641,9141,8807,8398,8475,8474,7861,8999,9648,8757,8943,7668
22,7772,7684,8640,9140,8809,8397,8476,8476,7860,8991,9657,8751,8941,7668
23,7776,7689,8641,9138,8803,8394,8476,8473,7861,8992,9663,8750,8941,7668
24,7772,7690,8645,9140,8805,8398,8472,8471,7861,9001,9656,8753,8937,7666
25,7769,7688,8641,9140,8810,8398,8471,8474,7858,9000,9653,8758,8934,7666
26,7768,7688,8636,9140,8808,8395,8477,8475,7857,8995,9654,8755,8937,7663
27,7769,7685,8639,9135,8804,8387,8472,8472,7859,9002,9654,8748,8941,7664
28,7764,7682,8641,9136,8812,8392,8469,8472,7863,8998,9652,8746,8936,7657
29,7765,7688,8640,9139,8808,8392,8466,8474,7861,8986,9652,8756,8943,7658
30,7766,7693,8639,9143,8806,8396,8473,8477,7858,8994,9650,8757,8943,7655
31,7770,7690,8641,9139,8806,8393,8475,8479,7856,9003,9653,8752,8938,7658
32,7764,7689,8639,9139,8814,8405,8476,8476,7858,8999,9653,8751,8936,7661
33,7768,7689,8639,9140,8811,8405,8469,8471,7859,8996,9650,8759,8944,7669
34,7771,7688,8644,9143,8806,8400,8475,8469,7858,9000,9651,8758,8942,7665
35,7772,7687,8642,9139,8807,8396,8477,8472,7854,8996,9656,8748,8938,7661
36,7768,7690,8638,9138,8813,8405,8472,8476,7853,8995,9652,8746,8937,7664
37,7768,7691,8641,9142,8804,8397,8471,8475,7853,8998,9647,8755,8939,7670
38,7766,7686,8640,9145,8801,8390,8475,8472,7855,8996,9654,8758,8940,7669
39,7765,7685,8635,9138,8811,8398,8472,8474,7857,8993,9657,8754,8940,7664
40,7771,7690,8639,9137,8807,8400,8471,8474,7858,8996,9653,8751,8940,7663
41,7771,7691,8641,9147,8803,8398,8475,8470,7857,9001,9654,8753,8943,7668
42,7774,7690,8636,9148,8805,8395,8468,8471,7857,8997,9657,8759,8946,7667
43,7772,7691,8637,9147,8809,8395,8463,8474,7859,8991,9658,8759,8938,7657
44,7772,7689,8642,9147,8806,8396,8468,8473,7859,8992,9659,8760,8938,7664
45,7768,7689,8645,9151,8807,8406,8475,8470,7856,8994,9657,8760,8940,7664
46,7768,7689,8646,9152,8804,8395,8469,8471,7852,8992,9662,8759,8942,7660
47,7768,7690,8648,9156,8810,8393,8469,8471,7854,8991,9662,8760,8937,7654
48,7772,7690,8646,9152,8809,8397,8468,8469,7854,8995,9656,8768,8943,7661
49,7765,7689,8645,9156,8808,8402,8470,8471,7853,8999,9658,8765,8940,7659
50,7763,7688,8649,9161,8810,8393,8467,8467,7855,8998,9671,8761,8939,7659
51,7762,7688,8650,9161,8815,8400,8468,8463,7856,8995,9668,8763,8942,7659
52,7765,7687,8646,9158,8811,8401,8471,8466,7854,8992,9657,8767,8943,7665
53,7764,7691,8649,9160,8810,8399,8475,8472,7857,8986,9658,8764,8939,7665
54,7767,7694,8649,9158,8809,8399,8475,8465,7854,8987,9664,8759,8939,7658
55,7770,7692,8640,9152,8813,8401,8477,8465,7853,8997,9667,8757,8941,7657
56,7766,7691,8642,9153,8811,8400,8478,8475,7860,9002,9663,8760,8940,7661
57,7765,7687,8646,9153,8804,8396,8473,8474,7861,9000,9659,8760,8941,7666
58,7765,7684,8640,9148,8807,8401,8472,8472,7859,8991,9657,8756,8942,7665
59,7771,7686,8638,9144,8807,8398,8472,8476,7859,8990,9659,8757,8944,7665
60,7766,7684,8641,9143,8803,8399,8471,8477,7862,8998,9660,8756,8939,7662
61,7763,7679,8643,9140,8800,8395,8466,8474,7864,9001,9660,8757,8937,7666
62,7762,7682,8642,9141,8807,8396,8470,8478,7863,8998,9657,8757,8941,7659
63,7765,7686,8639,9139,8802,8390,8468,8478,7861,8995,9659,8762,8944,7661
64,7762,7687,8638,9140,8800,8397,8473,8475,7865,8997,9659,8759,8934,7660
65,7764,7685,8644,9141,8805,8393,8469,8476,7861,9000,9659,8758,8937,7659
66,7762,7686,8645,9144,8810,8398,8468,8474,7857,8996,9656,8758,8941,7656
67,7764,7686,8641,9144,8807,8398,8473,8470,7862,8992,9660,8760,8943,7662
68,7766,7688,8642,9152,8815,8396,8482,8472,7860,8995,9660,8760,8940,7659
69,7765,7688,8645,9161,8814,8397,8476,8471,7851,8996,9658,8759,8941,7655
70,7759,7687,8648,9162,8810,8408,8475,8467,7855,8996,9662,8759,8938,7659
71,7760,7687,8648,9156,8816,8409,8483,8473,7857,8994,9664,8761,8933,7660
72,7764,7688,8646,9152,8815,8401,8479,8477,7852,8989,9663,8762,8937,7661
73,7762,7686,8643,9151,8801,8401,8476,8472,7857,8985,9658,8761,8938,7661
74,7766,7682,8642,9150,8801,8398,8473,8477,7862,8992,9659,8760,8936,7658
75,7763,7684,8641,9145,8813,8398,8470,8484,7858,8999,9659,8759,8936,7655
76,7761,7684,8639,9138,8803,8389,8462,8478,7860,8999,9659,8763,8945,7665
77,7759,7683,8638,9141,8798,8392,8465,8473,7863,8997,9661,8763,8943,7664
78,7767,7682,8641,9146,8800,8390,8465,8474,7862,8996,9662,8762,8945,7660
79,7766,7683,8641,9148,8807,8396,8462,8474,7862,8998,9657,8763,8942,7658
80,7765,7685,8641,9146,8803,8391,8465,8477,7856,8996,9658,8766,8938,7664
81,7765,7688,8642,9152,8805,8395,8476,8474,7853,8995,9657,8763,8936,7656
82,7771,7687,8644,9150,8807,8392,8476,8466,7860,9002,9654,8761,8940,7658
83,7769,7687,8645,9150,8815,8399,8475,8467,7857,8999,9658,8760,8937,7661
84,7770,7689,8642,9151,8817,8404,8475,8474,7849,8980,9665,8762,8938,7662
85,7771,7691,8644,9155,8813,8404,8484,8472,7855,8979,9665,8759,8942,7661
86,7772,7690,8648,9153,8814,8396,8486,8470,7857,9000,9664,8757,8941,7663
87,7769,7687,8647,9154,8812,8396,8477,8472,7853,9003,9665,8763,8939,7663
88,7767,7685,8643,9152,8806,8397,8470,8473,7853,8994,9663,8763,8942,7664
89,7770,7686,8647,9147,8806,8388,8469,8479,7854,8997,9666,8761,8948,7668
90,7768,7685,8648,9149,8806,8385,8468,8481,7858,9000,9665,8761,8945,7659
91,7768,7679,8642,9145,8796,8383,8463,8479,7864,8998,9661,8762,8942,7655
92,7768,7681,8638,9140,8798,8386,8471,8480,7865,8998,9656,8758,8944,7660
93,7776,7685,8639,9135,8805,8384,8471,8478,7862,8996,9656,8760,8944,7670
94,7772,7685,8640,9138,8808,8391,8469,8478,7861,8997,9659,8760,8937,7668
95,7770,7684,8641,9140,8805,8388,8469,8479,7859,8999,9660,8763,8939,7667
96,7765,7688,8641,9152,8808,8395,8475,8477,7859,8996,9661,8763,8943,7664
97,7765,7688,8644,9159,8805,8396,8472,8473,7857,9002,9668,8764,8943,7669
98,7764,7689,8649,9154,8809,8403,8473,8471,7856,8998,9669,8765,8937,7666
99,7769,7693,8652,9153,8809,8400,8479,8467,7855,8981,9667,8767,8939,7665
100,7768,7694,8650,9166,8814,8403,8485,8464,7851,8986,9668,8763,8939,7665
101,7767,7692,8645,9168,8812,8401,8483,8465,7849,9002,9672,8765,8937,7669
102,7768,7692,8647,9164,8810,8400,8479,8467,7857,8999,9673,8770,8935,7664
103,7768,7691,8647,9164,8813,8398,8475,8471,7858,8994,9668,8768,8936,7662
104,7768,7688,8647,9163,8813,8397,8472,8472,7853,8997,9663,8764,8943,7663
105,7766,7685,8650,9157,8805,8397,8469,8475,7857,8996,9665,8766,8945,7661
106,7767,7682,8649,9148,8799,8398,8468,8478,7863,8996,9667,8766,8939,7662
107,7764,7685,8640,9147,8808,8399,8470,8473,7863,8999,9666,8760,8934,7658
108,7764,7687,8638,9148,8810,8391,8462,8473,7863,8995,9670,8763,8942,7661
109,7758,7684,8642,9148,8808,8393,8467,8481,7863,8999,9666,8763,8939,7660
110,7761,7685,8642,9143,8798,8388,8470,8482,7856,9005,9661,8759,8936,7660
111,7761,7689,8638,9150,8800,8392,8473,8476,7855,8995,9657,8754,8938,7658
112,7765,7686,8643,9148,8804,8393,8471,8473,7862,8988,9659,8758,8943,7663
113,7764,7683,8646,9149,8809,8404,8473,8474,7864,8998,9660,8762,8942,7657
114,7768,7685,8645,9157,8803,8400,8470,8476,7860,9002,9668,8764,8943,7657
115,7768,7687,8649,9165,8806,8399,8474,8471,7860,8996,9672,8764,8941,7664
116,7771,7688,8651,9157,8809,8398,8476,8463,7856,8998,9669,8766,8943,7668
117,7767,7689,8647,9152,8810,8403,8475,8467,7851,9001,9669,8770,8941,7661
118,7763,7689,8648,9156,8806,8400,8476,8473,7851,8999,9672,8771,8942,7665
119,7764,7688,8652,9158,8808,8395,8475,8476,7856,8996,9668,8766,8943,7670
120,7763,7686,8647,9153,8807,8394,8470,8475,7855,8993,9658,8764,8938,7662
121,7763,7684,8644,9146,8803,8396,8466,8476,7855,8995,9664,8763,8935,7658
122,7768,7686,8644,9142,8803,8398,8463,8481,7857,8997,9670,8757,8939,7663
123,7772,7686,8638,9139,8797,8390,8462,8484,7855,8993,9663,8758,8941,7669
124,7763,7684,8635,9138,8797,8389,8471,8481,7856,8995,9658,8758,8932,7661
125,7763,7684,8637,9133,8802,8387,8470,8479,7857,9000,9657,8757,8937,7662
126,7763,7687,8638,9135,8808,8393,8473,8480,7860,9000,9655,8755,8938,7659
127,7767,7691,8641,9142,8800,8391,8473,8479,7862,8998,9662,8761,8936,7659
240,7765,7691,8640,9151,8806,8400,8478,8477,7863,8998,9663,8760,8935,7660
0,7768,7688,8637,9148,8811,8401,8480,8470,7860,8997,9663,8760,8942,7667
1,7764,7690,8637,9148,8810,8406,8483,8464,7857,9000,9664,8758,8938,7663
2,7767,7692,8643,9151,8804,8402,8476,8467,7855,9002,9662,8758,8938,7664
3,7770,7691,8648,9155,8811,8406,8478,8470,7853,9000,9657,8761,8939,7666
4,7770,7686,8643,9152,8809,8398,8480,8469,7856,8998,9659,8765,8941,7667
5,7765,7684,8641,9151,8803,8387,8474,8469,7861,8997,9662,8763,8942,7665
6,7765,7685,8644,9148,8803,8391,8469,8475,7859,8998,9661,8760,8939,7665
7,7767,7686,8643,9148,8804,8400,8473,8479,7854,8998,9663,8761,8936,7661
8,7765,7685,8639,9148,8805,8398,8473,8476,7858,9000,9663,8761,8943,7660
9,7767,7684,8639,9148,8802,8392,8466,8476,7864,9001,9658,8761,8948,7664
10,7767,7689,8642,9147,8803,8394,8467,8481,7860,9000,9655,8760,8938,7660
11,7765,7690,8643,9143,8802,8390,8471,8478,7859,8999,9661,8761,8939,7664
12,7765,7686,8642,9141,8801,8389,8471,8474,7864,8999,9661,8759,8944,7665
13,7771,7681,8639,9140,8799,8389,8466,8475,7857,8999,9658,8761,8938,7665
14,7768,7687,8640,9143,8809,8399,8473,8473,7852,8999,9657,8760,8926,7661
15,7771,7692,8642,9140,8807,8392,8474,8470,7858,8999,9663,8758,8934,7664
16,7768,7690,8642,9145,8806,8396,8473,8473,7861,8999,9666,8761,8937,7662
17,7766,7685,8644,9154,8807,8397,8472,8469,7855,8999,9667,8770,8934,7665
18,7761,7687,8647,9160,8814,8403,8479,8465,7853,8997,9661,8765,8934,7660
19,7764,7689,8647,9153,8812,8400,8478,8467,7854,8997,9659,8758,8943,7658
20,7764,7687,8646,9145,8809,8402,8478,8470,7852,8997,9661,8758,8940,7660
21,7766,7686,8641,9148,8808,8400,8481,8474,7850,8994,9663,8760,8934,7663
22,7765,7687,8640,9152,8811,8398,8484,8476,7853,8997,9662,8758,8937,7664
23,7763,7687,8643,9147,8809,8399,8481,8476,7858,9000,9660,8761,8941,7664
24,7768,7686,8643,9147,8805,8399,8473,8478,7859,8997,9659,8761,8938,7665
25,7770,7687,8638,9154,8811,8399,8472,8477,7858,8995,9657,8756,8938,7667
26,7770,7688,8637,9152,8813,8391,8474,8472,7856,8997,9659,8758,8941,7669
27,7769,7686,8640,9146,8810,8394,8479,8472,7853,8997,9659,8761,8935,7661
28,7770,7685,8643,9147,8807,8396,8476,8476,7853,8998,9657,8760,8937,7662
29,7762,7688,8643,9153,8808,8398,8474,8473,7858,8998,9657,8756,8941,7658
30,7764,7687,8640,9149,8801,8393,8471,8474,7854,8996,9663,8762,8943,7658
31,7767,7687,8639,9147,8802,8400,8475,8477,7855,8999,9657,8761,8937,7657
32,7769,7687,8642,9143,8806,8394,8473,8476,7861,9000,9653,8759,8941,7664
33,7768,7686,8640,9145,8812,8395,8470,8476,7860,8996,9657,8759,8940,7660
34,7773,7684,8638,9143,8807,8392,8466,8477,7856,8998,9659,8762,8941,7661
35,7767,7685,8641,9144,8807,8395,8472,8477,7860,9002,9656,8760,8939,7661
36,7766,7686,8644,9142,8807,8392,8470,8477,7860,9002,9658,8758,8942,7659
37,7766,7685,8643,9147,8809,8395,8468,8476,7853,8999,9664,8758,8943,7658
38,7765,7683,8643,9151,8808,8396,8472,8473,7855,8999,9663,8757,8941,7659
39,7766,7685,8643,9149,8805,8394,8476,8476,7858,8999,9656,8760,8943,7659
40,7767,7688,8643,9142,8805,8394,8473,8475,7855,9001,9651,8761,8946,7661
41,7766,7688,8643,9143,8811,8396,8471,8471,7856,8999,9659,8760,8943,7666
42,7764,7687,8642,9149,8815,8400,8474,8474,7858,8994,9663,8761,8939,7666
43,7768,7686,8642,9148,8805,8398,8471,8475,7854,8993,9663,8764,8941,7667
44,7765,7685,8643,9149,8802,8401,8473,8473,7856,8999,9664,8760,8941,7664
45,7765,7687,8646,9148,8804,8394,8473,8474,7862,9001,9665,8762,8943,7665
46,7764,7689,8645,9145,8812,8398,8471,8476,7862,8998,9661,8763,8940,7662
47,7770,7686,8644,9142,8807,8394,8468,8474,7860,9000,9661,8761,8940,7664
48,7766,7689,8647,9147,8805,8396,8474,8474,7864,8999,9658,8755,8936,7658
49,7764,7691,8648,9145,8805,8396,8470,8471,7859,8999,9658,8759,8938,7662
50,7766,7690,8642,9147,8806,8403,8471,8470,7852,9001,9659,8758,8936,7662
51,7771,7688,8639,9146,8800,8391,8469,8475,7854,8988,9658,8756,8939,7663
52,7768,7687,8642,9144,8805,8388,8471,8475,7857,8978,9659,8757,8941,7660
53,7764,7685,8644,9146,8808,8395,8473,8473,7854,8990,9662,8762,8941,7661
54,7763,7687,8641,9155,8806,8403,8476,8473,7853,9001,9660,8762,8941,7662
55,7771,7685,8635,9153,8808,8396,8471,8473,7860,8996,9659,8760,8939,7661
56,7771,7683,8636,9143,8809,8389,8466,8477,7864,8995,9661,8760,8935,7659
57,7761,7684,8643,9144,8809,8397,8471,8478,7857,8999,9658,8759,8933,7657
58,7763,7686,8645,9147,8811,8400,8470,8477,7854,9000,9660,8761,8939,7661
59,7766,7686,8640,9148,8811,8399,8466,8481,7860,8999,9665,8761,8942,7661
60,7767,7684,8641,9149,8800,8394,8465,8477,7858,8998,9663,8762,8947,7665
61,7765,7683,8643,9149,8800,8398,8473,8469,7856,9001,9657,8761,8946,7664
62,7770,7683,8641,9144,8802,8394,8472,8473,7861,8999,9661,8762,8947,7666
63,7767,7681,8643,9151,8808,8398,8470,8478,7862,8995,9660,8762,8943,7663
64,7769,7681,8646,9156,8805,8394,8471,8474,7855,9000,9658,8763,8942,7667
65,7769,7687,8646,9151,8806,8398,8478,8476,7856,8994,9657,8755,8942,7658
66,7770,7686,8645,9143,8803,8398,8475,8477,7865,8981,9658,8756,8943,7658
67,7767,7683,8646,9150,8803,8397,8474,8475,7864,8987,9655,8761,8935,7659
68,7769,7688,8645,9150,8803,8392,8471,8475,7854,9003,9657,8761,8935,7660
69,7767,7691,8642,9149,8802,8403,8469,8473,7855,9001,9662,8759,8941,7662
70,7763,7687,8640,9148,8803,8404,8465,8472,7858,8989,9660,8761,8941,7667
71,7766,7685,8641,9145,8810,8395,8471,8475,7856,8990,9661,8763,8942,7661
72,7769,7684,8642,9142,8807,8392,8472,8479,7858,9000,9665,8759,8942,7657
73,7765,7685,8640,9144,8801,8394,8467,8476,7862,9001,9663,8758,8937,7663
74,7764,7688,8639,9148,8810,8396,8472,8470,7856,8994,9658,8761,8936,7660
75,7769,7686,8639,9147,8815,8395,8473,8470,7850,8995,9658,8767,8943,7663
76,7765,7686,8640,9151,8810,8403,8476,8473,7854,9003,9653,8765,8941,7666
77,7766,7689,8643,9151,8802,8393,8475,8474,7854,8998,9656,8765,8939,7665
78,7764,7686,8643,9148,8804,8393,8477,8478,7857,8994,9664,8764,8937,7658
79,7765,7683,8645,9146,8802,8396,8471,8478,7862,8998,9662,8761,8942,7666
80,7763,7689,8644,9152,8808,8404,8475,8474,7861,9001,9656,8756,8944,7667
81,7767,7689,8639,9149,8806,8394,8473,8473,7858,8999,9664,8760,8941,7665
82,7762,7685,8642,9147,8807,8397,8469,8476,7861,8996,9660,8762,8936,7659
83,7766,7687,8646,9149,8806,8399,8467,8475,7862,8997,9655,8764,8943,7662
84,7771,7689,8639,9153,8807,8396,8471,8475,7863,8998,9663,8761,8943,7660
85,7770,7684,8634,9148,8804,8392,8466,8479,7860,8999,9666,8762,8936,7661
86,7769,7683,8641,9147,8803,8397,8465,8479,7853,8998,9660,8764,8933,7661
87,7765,7687,8646,9151,8804,8395,8471,8472,7851,9000,9659,8760,8934,7657
88,7764,7691,8647,9149,8804,8394,8472,8472,7854,9000,9661,8755,8935,7659
89,7769,7692,8646,9143,8802,8400,8469,8474,7855,8993,9657,8757,8939,7664
90,7772,7689,8647,9146,8805,8400,8469,8470,7855,8993,9656,8761,8940,7664
91,7764,7687,8642,9151,8816,8396,8476,8472,7855,8991,9660,8758,8935,7658
92,7765,7688,8640,9148,8812,8393,8476,8477,7857,8982,9662,8762,8944,7661
93,7765,7693,8645,9154,8807,8403,8479,8473,7858,8979,9659,8762,8947,7659
94,7768,7694,8649,9157,8808,8401,8475,8469,7855,8990,9662,8760,8940,7658
95,7760,7689,8643,9151,8812,8406,8476,8471,7854,8999,9662,8760,8936,7655
96,7764,7686,8643,9144,8807,8401,8477,8470,7857,8999,9662,8765,8942,7662
97,7769,7691,8649,9149,8810,8401,8482,8468,7857,8994,9662,8762,8937,7664
98,7770,7690,8649,9146,8806,8397,8477,8470,7855,9000,9664,8762,8941,7663
99,7761,7686,8646,9145,8805,8404,8472,8473,7858,9000,9660,8763,8948,7662
100,7769,7687,8643,9150,8807,8400,8471,8475,7855,8982,9660,8763,8940,7667
101,7771,7690,8643,9151,8808,8395,8473,8475,7852,8983,9661,8759,8933,7665
102,7761,7687,8644,9143,8806,8394,8471,8474,7856,9004,9657,8760,8943,7666
103,7763,7687,8641,9148,8806,8398,8471,8477,7857,9002,9660,8763,8942,7663
104,7771,7687,8638,9154,8807,8398,8472,8481,7854,8983,9662,8762,8931,7657
105,7767,7688,8642,9148,8803,8399,8472,8476,7854,8982,9661,8759,8934,7659
106,7763,7690,8647,9148,8802,8402,8471,8470,7856,8994,9660,8760,8938,7660
107,7772,7691,8645,9153,8804,8396,8469,8474,7857,8999,9663,8765,8938,7663
108,7769,7691,8645,9152,8807,8394,8473,8478,7858,8998,9661,8761,8938,7661
109,7766,7687,8646,9150,8805,8395,8470,8472,7854,8998,9659,8760,8940,7662
110,7767,7687,8643,9154,8813,8401,8473,8471,7855,8999,9656,8761,8938,7656
111,7768,7689,8644,9150,8818,8393,8477,8475,7860,8999,9656,8762,8944,7660
112,7760,7689,8643,9149,8815,8399,8480,8475,7860,9001,9655,8759,8937,7658
113,7766,7685,8639,9149,8803,8399,8474,8472,7859,8997,9660,8763,8934,7659
114,7765,7688,8641,9147,8807,8402,8477,8472,7864,8989,9658,8764,8941,7661
115,7763,7692,8645,9144,8808,8394,8475,8471,7860,8986,9656,8762,8945,7665
116,7766,7691,8642,9150,8806,8393,8474,8471,7851,8993,9661,8759,8937,7663
117,7773,7686,8641,9150,8801,8393,8473,8473,7853,9002,9664,8758,8936,7666
118,7768,7686,8644,9148,8804,8395,8471,8476,7860,8996,9661,8759,8937,7668
119,7764,7690,8642,9147,8805,8395,8470,8475,7857,8990,9662,8762,8938,7664
120,7767,7688,8642,9149,8806,8395,8473,8473,7854,8997,9662,8763,8941,7663
121,7763,7688,8645,9153,8808,8397,8472,8474,7861,9002,9654,8762,8939,7666
122,7762,7692,8645,9154,8801,8395,8469,8473,7865,8997,9655,8764,8937,7666
123,7767,7691,8645,9156,8800,8400,8475,8474,7857,8995,9658,8761,8939,7659
124,7770,7690,8645,9154,8802,8397,8475,8479,7851,8997,9659,8759,8943,7660
125,7763,7692,8643,9150,8807,8396,8473,8475,7856,8998,9657,8759,8937,7663
126,7769,7687,8642,9144,8804,8396,8467,8472,7855,8998,9662,8762,8939,7670
127,7767,7684,8641,9144,8806,8402,8467,8479,7856,8999,9661,8761,8942,7665
240,7765,7688,8639,9139,8803,8394,8468,8482,7862,8998,9660,8761,8944,7665
0,7761,7691,8643,9145,8806,8396,8472,8480,7859,8999,9656,8759,8937,7660
1,7763,7690,8646,9148,8806,8394,8467,8478,7856,8999,9656,8762,8940,7661
2,7762,7690,8643,9146,8808,8397,8471,8477,7860,8999,9655,8761,8942,7658
3,7765,7688,8642,9144,8807,8392,8475,8474,7861,8999,9655,8759,8942,7660
4,7762,7687,8641,9148,8809,8394,8477,8471,7858,8999,9660,8758,8942,7657
5,7763,7685,8640,9148,8807,8394,8473,8473,7861,8999,9665,8759,8942,7658
6,7767,7686,8645,9149,8809,8398,8470,8474,7863,8999,9660,8761,8939,7663
7,7767,7689,8645,9151,8810,8400,8472,8476,7856,9000,9656,8763,8939,7664
8,7769,7690,8641,9149,8807,8397,8475,8477,7853,8997,9662,8760,8941,7663
9,7770,7686,8645,9148,8806,8399,8473,8477,7855,8999,9663,8756,8942,7665
10,7770,7686,8649,9149,8805,8400,8469,8475,7855,9002,9658,8758,8941,7669
11,7765,7687,8641,9149,8809,8401,8477,8474,7853,8989,9657,8756,8936,7665
12,7770,7684,8639,9146,8806,8397,8479,8477,7853,8981,9662,8759,8943,7665
13,7768,7684,8644,9146,8806,8402,8476,8478,7856,8996,9658,8761,8943,7662
14,7768,7687,8644,9150,8801,8397,8474,8475,7860,9006,9655,8761,8938,7665
15,7762,7691,8640,9154,8806,8397,8479,8473,7858,8999,9655,8758,8934,7659
16,7765,7689,8643,9144,8809,8388,8472,8473,7848,8998,9662,8760,8940,7659
17,7769,7691,8646,9143,8808,8393,8469,8474,7853,9001,9665,8759,8939,7659
18,7773,7690,8642,9150,8801,8394,8469,8474,7859,8999,9661,8762,8940,7665
19,7763,7685,8641,9155,8803,8397,8472,8474,7854,8993,9654,8760,8939,7662
20,7759,7680,8643,9147,8805,8394,8474,8473,7849,8988,9655,8758,8939,7661
21,7762,7684,8642,9146,8807,8399,8475,8475,7854,8995,9663,8762,8939,7662
22,7765,7687,8642,9146,8807,8397,8467,8476,7856,9002,9668,8764,8938,7662
23,7763,7685,8645,9145,8804,8393,8467,8473,7854,8998,9667,8759,8936,7659
24,7763,7682,8643,9148,8807,8397,8473,8475,7855,8996,9660,8759,8939,7658
25,7765,7686,8640,9149,8812,8399,8473,8478,7855,8997,9656,8761,8940,7662
26,7764,7691,8640,9147,8810,8401,8475,8475,7859,8997,9654,8757,8935,7664
27,7768,7687,8644,9147,8805,8392,8475,8473,7864,9000,9657,8758,8939,7667
28,7766,7684,8643,9149,8808,8396,8475,8472,7863,8996,9662,8759,8942,7664
29,7766,7686,8641,9145,8806,8395,8472,8474,7861,8987,9664,8762,8944,7669
30,7764,7686,8640,9143,8807,8395,8472,8475,7858,8987,9663,8761,8940,7667
31,7771,7684,8643,9142,8804,8389,8473,8473,7856,8993,9664,8763,8941,7666
32,7771,7688,8642,9144,8807,8398,8480,8474,7859,8988,9659,8761,8938,7661
33,7771,7688,8639,9145,8806,8396,8474,8476,7857,8987,9658,8757,8939,7666
34,7766,7684,8640,9151,8805,8396,8470,8475,7851,8997,9659,8756,8936,7662
35,7768,7684,8644,9148,8804,8394,8473,8474,7851,9002,9659,8761,8934,7658
36,7766,7688,8641,9145,8806,8397,8477,8475,7855,8997,9662,8758,8936,7658
37,7763,7686,8638,9144,8802,8390,8472,8477,7857,8998,9665,8757,8940,7665
38,7762,7687,8643,9146,8805,8390,8474,8478,7861,8997,9660,8762,8939,7665
39,7765,7688,8645,9147,8808,8394,8473,8475,7863,8991,9656,8758,8942,7659
40,7766,7688,8643,9145,8807,8394,8467,8473,7860,8993,9658,8755,8943,7660
41,7762,7688,8644,9147,8810,8394,8472,8476,7858,8996,9659,8759,8937,7662
42,7767,7687,8646,9150,8806,8391,8473,8476,7861,8993,9663,8760,8941,7663
43,7770,7688,8642,9152,8803,8395,8472,8474,7863,8997,9664,8754,8943,7661
44,7770,7688,8642,9146,8801,8395,8474,8475,7857,9002,9663,8757,8941,7666
45,7761,7687,8645,9148,8807,8400,8479,8477,7855,9001,9661,8761,8936,7665
46,7763,7686,8646,9153,8803,8396,8471,8475,7856,9001,9666,8761,8940,7666
47,7764,7688,8645,9157,8805,8401,8471,8475,7854,9002,9661,8760,8941,7665
48,7766,7687,8642,9152,8804,8396,8474,8475,7855,9001,9657,8764,8946,7666
49,7761,7686,8641,9153,8805,8399,8472,8475,7860,9001,9661,8762,8939,7662
50,7766,7686,8643,9153,8802,8393,8469,8475,7856,9000,9667,8762,8934,7668
51,7768,7688,8645,9151,8805,8392,8473,8478,7855,8998,9659,8761,8938,7667
52,7765,7688,8646,9150,8806,8394,8467,8478,7862,8999,9653,8757,8942,7664
53,7764,7687,8642,9152,8807,8402,8469,8474,7865,8999,9658,8755,8933,7657
54,7772,7685,8638,9145,8805,8396,8473,8475,7863,8999,9660,8762,8931,7659
55,7770,7686,8645,9145,8806,8392,8471,8477,7862,8999,9658,8764,8940,7662
56,7765,7687,8646,9152,8807,8398,8469,8473,7858,8999,9658,8760,8942,7662
57,7770,7688,8638,9147,8806,8397,8472,8471,7852,8999,9660,8758,8943,7663
58,7770,7689,8638,9142,8807,8392,8474,8474,7854,9000,9659,8757,8942,7663
59,7765,7688,8645,9144,8809,8390,8473,8471,7858,8998,9658,8761,8941,7665
60,7759,7689,8647,9148,8809,8398,8480,8471,7855,8998,9658,8759,8935,7659
61,7764,7687,8648,9145,8799,8391,8476,8473,7851,9002,9660,8759,8940,7662
62,7762,7690,8642,9146,8802,8391,8473,8474,7857,8996,9655,8761,8941,7663
63,7765,7690,8638,9142,8809,8393,8468,8474,7863,8988,9658,8759,8942,7661
64,7765,7685,8644,9140,8814,8401,8468,8475,7864,8995,9662,8753,8943,7656
65,7769,7683,8645,9142,8802,8387,8467,8473,7863,9001,9660,8759,8948,7665
66,7769,7688,8640,9148,8803,8387,8470,8472,7860,8997,9658,8763,8943,7666
67,7771,7688,8642,9146,8804,8392,8472,8475,7854,8995,9663,8764,8943,7663
68,7765,7687,8643,9142,8803,8396,8477,8476,7857,8997,9660,8762,8943,7662
69,7764,7687,8641,9143,8802,8395,8477,8474,7854,8998,9659,8762,8941,7668
70,7765,7688,8645,9150,8806,8396,8476,8474,7849,8999,9662,8760,8934,7663
71,7767,7689,8647,9151,8805,8392,8473,8479,7855,8999,9659,8759,8936,7655
72,7768,7689,8646,9151,8802,8394,8472,8476,7860,8999,9658,8761,8943,7656
73,7769,7687,8646,9151,8804,8401,8474,8472,7853,8999,9656,8763,8940,7658
74,7767,7688,8644,9150,8801,8397,8472,8475,7853,9000,9656,8765,8937,7662
75,7766,7689,8642,9152,8803,8399,8474,8477,7855,8999,9660,8759,8941,7661
76,7772,7691,8644,9151,8806,8396,8474,8475,7853,8996,9663,8756,8947,7665
77,7766,7692,8640,9149,8809,8397,8480,8473,7855,8995,9662,8757,8942,7663
78,7763,7689,8638,9148,8805,8396,8481,8473,7855,9002,9665,8763,8943,7664
79,7764,7686,8645,9156,8808,8400,8485,8471,7853,8998,9662,8762,8943,7659
80,7761,7687,8645,9156,8805,8392,8477,8469,7854,8989,9662,8762,8943,7657
81,7751,7690,8641,9151,8805,8397,8475,8469,7857,8996,9661,8759,8939,7658
82,7763,7691,8643,9146,8809,8396,8471,8468,7858,9004,9661,8759,8934,7664
83,7769,7688,8644,9151,8813,8398,8473,8473,7857,8998,9659,8760,8933,7662
84,7765,7687,8644,9146,8804,8398,8475,8474,7857,8994,9660,8761,8940,7661
85,7764,7690,8644,9146,8803,8402,8478,8472,7860,8998,9659,8759,8940,7660
86,7766,7688,8640,9155,8807,8398,8476,8472,7857,8999,9657,8761,8940,7662
87,7763,7685,8641,9156,8807,8394,8474,8474,7854,8998,9659,8760,8942,7663
88,7765,7687,8645,9148,8807,8399,8474,8474,7854,8999,9661,8757,8939,7665
89,7770,7688,8641,9150,8805,8401,8473,8474,7855,8998,9661,8757,8939,7661
90,7767,7688,8639,9152,8804,8398,8476,8473,7854,8999,9659,8761,8938,7653
91,7771,7688,8644,9146,8805,8394,8474,8472,7857,8999,9661,8765,8935,7659
92,7765,7689,8643,9147,8815,8397,8473,8473,7858,8998,9662,8761,8936,7658
93,7760,7690,8641,9148,8812,8392,8472,8476,7854,8997,9661,8760,8944,7659
94,7766,7690,8639,9148,8806,8396,8475,8478,7857,8993,9658,8756,8938,7657
95,7775,7685,8640,9147,8802,8395,8470,8478,7861,8991,9657,8758,8940,7663
96,7766,7686,8639,9152,8804,8392,8469,8478,7864,8998,9659,8759,8942,7659
97,7765,7688,8641,9145,8801,8383,8467,8480,7860,9002,9660,8759,8941,7662
98,7767,7685,8643,9141,8808,8391,8472,8478,7857,8998,9654,8755,8938,7661
99,7761,7686,8643,9145,8808,8393,8471,8478,7861,8997,9654,8756,8939,7659
100,7753,7691,8642,9149,8806,8399,8471,8479,7864,9000,9658,8757,8938,7659
101,7764,7689,8642,9145,8807,8395,8471,8476,7855,9000,9663,8757,8938,7664
102,7768,7686,8640,9146,8808,8396,8474,8475,7848,8996,9667,8760,8939,7660
103,7764,7684,8639,9145,8802,8400,8472,8477,7857,8998,9664,8762,8940,7657
104,7765,7686,8644,9143,8804,8400,8472,8477,7862,9000,9662,8758,8941,7664
105,7766,7689,8643,9148,8811,8396,8477,8476,7859,8989,9665,8758,8943,7667
106,7765,7690,8636,9150,8806,8395,8475,8473,7862,8984,9664,8762,8945,7662
107,7764,7689,8636,9149,8806,8399,8474,8472,7861,8999,9659,8759,8941,7659
108,7766,7689,8643,9151,8807,8394,8473,8473,7855,9004,9660,8755,8943,7665
109,7760,7690,8641,9153,8807,8399,8479,8474,7855,8997,9660,8758,8943,7657
110,7766,7687,8640,9148,8803,8397,8480,8476,7854,8999,9661,8764,8943,7661
111,7771,7684,8645,9149,8806,8395,8480,8475,7852,9002,9660,8758,8940,7663
112,7771,7680,8645,9145,8807,8390,8468,8474,7856,8998,9661,8756,8946,7663
113,7763,7684,8641,9147,8808,8397,8467,8479,7860,8996,9658,8758,8944,7657
114,7770,7686,8641,9149,8801,8391,8472,8482,7858,8996,9655,8759,8941,7660
115,7769,7684,8643,9150,8804,8391,8474,8483,7855,8999,9654,8758,8939,7660
116,7764,7683,8641,9145,8805,8390,8463,8483,7855,8999,9659,8761,8943,7662
117,7760,7684,8640,9145,8807,8397,8469,8479,7856,8995,9659,8761,8943,7658
118,7765,7686,8638,9143,8808,8394,8479,8473,7856,8998,9659,8760,8938,7659
119,7763,7688,8638,9144,8805,8394,8477,8474,7855,9000,9663,8761,8936,7661
120,7763,7690,8643,9150,8805,8400,8474,8474,7852,8992,9663,8760,8942,7661
121,7771,7690,8646,9153,8810,8402,8474,8470,7854,8988,9659,8762,8946,7665
122,7769,7689,8643,9151,8809,8403,8479,8471,7859,9000,9657,8764,8942,7667
123,7765,7688,8643,9148,8803,8399,8481,8470,7857,9002,9666,8763,8940,7665
124,7764,7687,8641,9150,8808,8400,8481,8470,7855,8989,9666,8761,8943,7663
125,7767,7687,8641,9155,8808,8397,8475,8468,7859,8989,9660,8762,8945,7667
126,7761,7688,8643,9156,8810,8402,8481,8469,7858,8997,9660,8758,8940,7664
127,7768,7686,8644,9151,8805,8398,8481,8471,7852,8994,9665,8759,8942,7670
240,7770,7685,8645,9156,8803,8399,8476,8474,7857,8995,9661,8757,8939,7663
0,7767,7685,8648,9156,8805,8396,8475,8477,7859,9003,9658,8756,8937,7660
1,7762,7688,8645,9150,8813,8399,8482,8477,7856,9002,9659,8758,8936,7659
2,7767,7689,8641,9149,8804,8396,8474,8474,7854,8999,9659,8763,8942,7663
3,7769,7690,8642,9156,8801,8400,8475,8473,7853,9000,9658,8757,8944,7659
4,7769,7687,8643,9148,8803,8397,8476,8475,7852,9000,9662,8753,8942,7659
5,7765,7685,8642,9143,8807,8396,8474,8476,7854,8999,9660,8756,8938,7660
6,7765,7685,8642,9147,8807,8395,8470,8479,7851,8995,9656,8760,8937,7663
7,7765,7686,8645,9146,8809,8396,8475,8480,7850,8990,9659,8761,8937,7662
8,7761,7687,8643,9144,8806,8393,8478,8476,7857,8999,9663,8760,8936,7658
9,7767,7684,8638,9144,8798,8391,8471,8477,7860,9003,9664,8760,8941,7659
10,7769,7682,8640,9146,8802,8399,8472,8479,7854,8984,9657,8758,8939,7659
11,7765,7686,8641,9146,8806,8394,8468,8478,7855,8985,9658,8757,8938,7662
12,7761,7692,8637,9148,8805,8397,8468,8477,7862,9004,9666,8756,8941,7659
13,7767,7687,8640,9145,8802,8396,8468,8478,7861,9003,9668,8761,8944,7662
14,7767,7681,8645,9143,8812,8398,8474,8474,7857,8993,9662,8762,8939,7661
15,7770,7686,8642,9143,8808,8392,8470,8474,7860,8996,9665,8762,8942,7663
16,7765,7691,8640,9148,8808,8402,8472,8478,7865,8999,9663,8762,8943,7661
17,7767,7689,8643,9146,8810,8399,8476,8472,7860,8995,9656,8763,8942,7667
18,7769,7687,8645,9148,8811,8396,8475,8468,7854,8987,9656,8760,8936,7661
19,7766,7685,8647,9149,8803,8394,8467,8474,7857,8981,9662,8759,8936,7661
20,7762,7688,8646,9148,8802,8396,8474,8478,7860,8995,9660,8760,8936,7660
21,7768,7689,8642,9149,8806,8394,8478,8474,7857,9002,9657,8761,8938,7658
22,7767,7687,8641,9155,8807,8397,8470,8470,7856,8987,9661,8760,8938,7659
23,7764,7688,8641,9152,8807,8393,8469,8471,7858,8983,9667,8758,8938,7663
24,7769,7690,8644,9147,8807,8393,8473,8473,7856,8998,9665,8762,8943,7662
25,7766,7689,8648,9152,8808,8399,8472,8474,7855,9004,9659,8763,8941,7660
26,7759,7689,8644,9151,8804,8395,8471,8469,7857,8997,9659,8762,8939,7663
27,7757,7689,8639,9145,8808,8396,8476,8466,7858,8995,9656,8761,8941,7659
28,7763,7688,8643,9141,8812,8399,8474,8468,7858,8998,9658,8759,8944,7661
29,7759,7689,8647,9147,8814,8403,8477,8471,7857,8998,9661,8755,8934,7660
30,7762,7688,8644,9152,8807,8396,8478,8474,7853,8998,9661,8760,8934,7662
31,7766,7683,8642,9154,8811,8405,8476,8476,7851,9001,9660,8763,8941,7660
32,7771,7683,8641,9149,8812,8400,8472,8473,7852,9000,9665,8761,8942,7662
33,7764,7688,8639,9152,8809,8396,8480,8474,7858,8998,9667,8757,8934,7662
34,7764,7686,8642,9151,8803,8394,8480,8477,7861,8997,9668,8761,8940,7665
35,7764,7683,8645,9150,8811,8398,8478,8471,7858,8996,9663,8761,8946,7661
36,7767,7685,8644,9150,8808,8394,8472,8472,7850,9000,9658,8760,8945,7663
37,7769,7686,8642,9151,8803,8393,8474,8479,7855,8997,9659,8760,8942,7661
38,7768,7684,8639,9148,8804,8394,8477,8476,7866,8988,9659,8763,8937,7660
39,7765,7686,8639,9148,8809,8397,8475,8475,7865,8990,9655,8760,8934,7664
40,7766,7689,8643,9150,8806,8403,8474,8483,7856,8996,9654,8756,8941,7660
41,7768,7688,8643,9151,8802,8400,8476,8477,7852,8993,9657,8762,8946,7658
42,7763,7687,8641,9151,8812,8397,8479,8466,7859,8996,9655,8762,8938,7664
43,7765,7687,8645,9150,8816,8398,8473,8474,7862,9004,9658,8758,8939,7670
44,7766,7684,8644,9150,8808,8400,8472,8482,7859,9001,9659,8755,8945,7660
45,7768,7682,8641,9145,8800,8391,8473,8478,7860,8998,9659,8761,8946,7661
46,7765,7686,8638,9145,8810,8394,8474,8475,7860,9003,9661,8759,8940,7663
47,7766,7688,8637,9146,8810,8395,8465,8479,7854,9002,9668,8759,8945,7663
48,7760,7683,8641,9150,8805,8399,8470,8479,7856,8998,9660,8762,8942,7657
49,7763,7684,8645,9148,8803,8393,8473,8477,7862,9000,9661,8765,8939,7658
50,7768,7688,8643,9148,8808,8396,8472,8477,7858,8999,9667,8760,8938,7656
51,7770,7685,8641,9145,8806,8393,8470,8477,7855,8990,9663,8760,8943,7659
52,7764,7683,8642,9142,8810,8396,8470,8472,7860,8993,9656,8762,8944,7659
53,7766,7684,8641,9139,8805,8393,8470,8473,7857,9002,9661,8759,8944,7662
54,7768,7686,8642,9142,8800,8391,8477,8479,7858,9000,9661,8753,8941,7667
55,7766,7685,8641,9145,8804,8390,8477,8479,7860,9000,9657,8758,8944,7669
56,7768,7687,8641,9148,8806,8396,8470,8473,7856,9003,9660,8763,8946,7663
57,7769,7684,8641,9148,8804,8401,8467,8473,7854,8998,9659,8758,8938,7662
58,7767,7679,8641,9146,8803,8396,8470,8477,7858,8995,9662,8759,8934,7666
59,7767,7683,8640,9146,8806,8393,8472,8478,7862,8997,9662,8760,8936,7659
60,7773,7690,8643,9145,8801,8389,8467,8480,7862,8991,9658,8758,8942,7662
61,7762,7689,8642,9148,8806,8391,8470,8481,7863,8987,9659,8759,8940,7662
62,7761,7686,8640,9145,8808,8389,8472,8475,7863,8995,9668,8765,8944,7663
63,7764,7690,8640,9149,8809,8399,8474,8476,7860,8998,9666,8761,8942,7658
64,7765,7695,8644,9152,8804,8394,8467,8480,7856,8995,9662,8767,8940,7657
65,7760,7692,8643,9151,8807,8397,8475,8472,7855,8997,9665,8769,8935,7655
66,7765,7685,8640,9145,8809,8398,8478,8464,7854,9000,9661,8761,8937,7661
67,7760,7686,8642,9150,8812,8401,8475,8471,7852,8997,9651,8759,8938,7658
68,7760,7688,8643,9148,8808,8397,8469,8473,7859,8996,9658,8765,8943,7657
69,7765,7687,8640,9144,8805,8400,8469,8469,7864,8999,9666,8763,8946,7662
70,7767,7687,8639,9149,8805,8398,8470,8470,7854,8990,9659,8760,8944,7665
71,7765,7689,8646,9152,8807,8399,8474,8474,7852,8984,9656,8758,8945,7662
72,7767,7687,8645,9146,8806,8403,8477,8474,7859,8991,9660,8760,8946,7664
73,7769,7687,8638,9146,8804,8399,8477,8470,7856,8992,9661,8764,8944,7664
74,7764,7688,8637,9153,8806,8398,8477,8469,7854,8989,9658,8762,8940,7660
75,7766,7685,8646,9149,8802,8398,8475,8472,7863,8994,9659,8760,8943,7662
76,7767,7685,8645,9146,8804,8401,8474,8475,7863,9002,9657,8758,8940,7660
77,7767,7688,8640,9146,8804,8395,8470,8472,7852,8999,9657,8757,8941,7665
78,7763,7691,8644,9149,8806,8396,8472,8471,7854,8993,9657,8758,8940,7662
79,7767,7690,8650,9147,8803,8393,8471,8474,7855,8995,9660,8763,8941,7657
80,7764,7690,8645,9149,8806,8400,8474,8481,7854,8999,9663,8762,8936,7652
81,7765,7688,8642,9151,8802,8394,8474,8479,7859,8999,9668,8762,8935,7661
82,7762,7686,8644,9154,8806,8393,8477,8469,7862,8997,9667,8758,8936,7660
83,7765,7684,8644,9150,8809,8391,8472,8475,7860,9003,9659,8759,8947,7660
84,7765,7683,8643,9145,8810,8397,8475,8482,7858,8993,9656,8762,8946,7660
85,7766,7683,8645,9142,8808,8391,8475,8477,7854,8983,9663,8760,8937,7658
86,7763,7683,8644,9145,8810,8390,8473,8476,7853,8991,9664,8757,8936,7659
87,7763,7685,8643,9150,8807,8393,8473,8479,7858,8987,9661,8762,8941,7666
88,7763,7687,8646,9151,8807,8397,8472,8478,7857,8984,9662,8765,8940,7664
89,7760,7683,8642,9145,8808,8400,8470,8475,7852,8998,9661,8759,8937,7656
90,7761,7682,8637,9141,8804,8401,8470,8474,7857,8999,9662,8754,8944,7660
91,7765,7685,8639,9150,8805,8401,8476,8472,7860,8992,9659,8755,8945,7664
92,7769,7684,8644,9155,8806,8389,8471,8471,7860,9001,9656,8760,8940,7664
93,7765,7685,8642,9147,8807,8394,8468,8473,7862,8993,9656,8759,8938,7663
94,7766,7690,8640,9140,8802,8396,8469,8473,7857,8981,9661,8760,8944,7669
95,7765,7688,8643,9148,8806,8395,8475,8475,7857,8998,9659,8759,8942,7665
96,7768,7685,8644,9152,8806,8386,8474,8474,7858,9006,9660,8765,8942,7668
97,7763,7688,8641,9150,8809,8394,8476,8474,7857,8999,9661,8764,8942,7663
98,7767,7683,8643,9142,8805,8393,8468,8474,7857,9000,9662,8761,8941,7658
99,7766,7682,8650,9146,8803,8397,8469,8476,7863,9004,9658,8759,8937,7656
100,7766,7684,8648,9148,8806,8394,8472,8479,7861,9001,9656,8763,8942,7664
101,7765,7686,8639,9146,8810,8396,8472,8480,7855,9001,9657,8761,8941,7664
102,7770,7685,8637,9144,8802,8395,8466,8479,7860,9001,9660,8757,8937,7662
103,7763,7688,8643,9147,8804,8395,8471,8476,7862,8999,9662,8759,8940,7663
104,7756,7689,8642,9145,8811,8393,8474,8471,7855,8998,9661,8761,8942,7662
105,7764,7687,8644,9148,8807,8393,8473,8476,7853,9000,9664,8760,8941,7659
106,7769,7688,8648,9151,8805,8398,8473,8484,7857,9000,9667,8758,8942,7658
107,7767,7690,8645,9146,8809,8398,8471,8479,7859,8991,9673,8763,8948,7661
108,7763,7688,8639,9145,8810,8399,8474,8471,7857,8987,9670,8759,8945,7660
109,7768,7687,8643,9150,8803,8390,8471,8472,7856,8996,9663,8758,8943,7665
110,7766,7691,8645,9151,8807,8393,8469,8476,7855,9001,9659,8765,8942,7665
111,7766,7690,8639,9145,8806,8393,8470,8475,7858,8997,9662,8767,8943,7664
112,7760,7686,8637,9146,8808,8397,8479,8474,7856,8995,9663,8758,8942,7663
113,7764,7688,8644,9145,8808,8390,8479,8474,7846,8996,9663,8762,8945,7670
114,7769,7690,8648,9150,8809,8394,8476,8473,7850,8997,9659,8762,8940,7667
115,7773,7685,8646,9149,8801,8395,8474,8472,7861,8999,9658,8756,8942,7671
116,7768,7686,8644,9149,8801,8398,8480,8474,7858,8999,9659,8759,8939,7667
117,7766,7688,8644,9147,8804,8391,8476,8477,7854,8998,9662,8767,8936,7662
118,7768,7684,8644,9151,8806,8391,8472,8476,7858,8999,9661,8761,8937,7661
119,7770,7683,8642,9149,8802,8394,8471,8474,7856,8999,9659,8757,8942,7663
120,7768,7687,8644,9145,8805,8399,8472,8473,7855,8999,9658,8762,8941,7659
121,7768,7685,8647,9145,8808,8398,8474,8473,7855,8999,9658,8763,8942,7658
122,7767,7685,8646,9148,8806,8391,8475,8474,7851,8998,9656,8763,8945,7661
123,7764,7689,8644,9149,8807,8391,8476,8472,7855,8998,9656,8761,8941,7659
124,7769,7688,8640,9144,8805,8394,8474,8472,7861,8999,9664,8762,8944,7660
125,7769,7685,8640,9147,8809,8401,8478,8472,7857,8999,9660,8764,8942,7658
126,7768,7688,8647,9150,8806,8396,8476,8469,7852,8995,9658,8766,8937,7663
127,7766,7690,8645,9149,8807,8399,8478,8467,7854,8996,9660,8760,8935,7664
240,7770,7686,8637,9145,8808,8394,8476,8474,7855,9000,9661,8762,8945,7665
0,7766,7686,8639,9148,8813,8398,8473,8481,7859,8999,9659,8763,8944,7662
1,7767,7687,8644,9148,8805,8396,8469,8478,7863,8997,9663,8760,8941,7664
2,7765,7686,8643,9142,8806,8394,8472,8478,7861,8998,9661,8757,8940,7662
3,7768,7684,8640,9139,8805,8384,8471,8479,7855,9001,9656,8761,8945,7665
4,7768,7688,8640,9148,8801,8390,8471,8478,7854,9000,9661,8759,8945,7663
5,7768,7688,8640,9148,8802,8393,8468,8472,7855,8993,9668,8757,8940,7663
6,7770,7685,8644,9144,8805,8388,8471,8474,7855,8992,9663,8758,8939,7661
7,7770,7685,8645,9147,8803,8386,8470,8483,7856,9001,9659,8761,8943,7658
8,7766,7687,8640,9151,8801,8390,8466,8482,7858,9001,9661,8761,8943,7661
9,7765,7690,8642,9144,8803,8390,8468,8471,7855,8990,9660,8757,8937,7660
10,7769,7689,8648,9139,8805,8389,8471,8469,7853,8991,9658,8757,8940,7659
11,7765,7687,8643,9147,8806,8397,8475,8474,7858,9001,9658,8758,8943,7657
12,7764,7688,8639,9145,8804,8395,8473,8474,7859,9001,9660,8762,8944,7662
13,7763,7689,8641,9142,8810,8399,8476,8477,7854,8999,9655,8763,8940,7660
14,7767,7687,8640,9147,8807,8397,8471,8477,7856,9001,9661,8763,8938,7667
15,7762,7688,8638,9153,8805,8400,8475,8471,7860,9003,9664,8759,8937,7665
16,7766,7689,8640,9146,8803,8393,8474,8466,7852,9000,9659,8762,8942,7664
17,7765,7689,8643,9150,8807,8397,8473,8469,7852,8998,9656,8765,8937,7661
18,7766,7688,8646,9152,8804,8396,8474,8474,7863,9000,9665,8764,8937,7664
19,7763,7686,8648,9147,8805,8396,8478,8473,7861,9000,9665,8759,8942,7665
20,7768,7687,8644,9145,8805,8393,8474,8475,7852,8991,9659,8761,8947,7667
21,7768,7688,8645,9150,8807,8396,8472,8477,7854,8981,9664,8764,8940,7663
22,7767,7685,8652,9149,8806,8395,8471,8472,7855,8987,9668,8764,8938,7660
23,7769,7688,8648,9150,8805,8398,8472,8467,7854,8999,9660,8761,8939,7660
24,7771,7690,8638,9152,8809,8400,8476,8467,7854,9002,9655,8760,8934,7661
25,7770,7686,8640,9152,8809,8399,8476,8467,7854,8999,9660,8761,8934,7662
26,7764,7688,8650,9151,8805,8401,8473,8467,7857,9000,9661,8763,8938,7658
27,7767,7692,8648,9148,8802,8396,8468,8474,7860,9002,9657,8763,8943,7657
28,7769,7686,8640,9146,8805,8393,8470,8480,7862,9002,9657,8755,8942,7660
29,7769,7684,8640,9144,8806,8389,8472,8481,7860,8999,9664,8756,8944,7670
30,7762,7690,8643,9144,8807,8396,8475,8479,7859,8998,9664,8761,8938,7664
31,7765,7688,8643,9140,8802,8391,8469,8477,7861,8998,9660,8764,8936,7662
32,7764,7683,8640,9145,8808,8390,8470,8480,7863,8997,9655,8759,8938,7659
33,7765,7684,8642,9147,8807,8389,8467,8477,7856,8993,9660,8761,8942,7663
34,7761,7686,8645,9144,8803,8399,8471,8470,7854,8996,9658,8763,8939,7660
35,7762,7686,8643,9140,8797,8396,8474,8474,7857,9001,9652,8759,8943,7662
36,7766,7689,8641,9147,8806,8396,8473,8481,7854,8999,9653,8758,8944,7662
37,7771,7691,8644,9148,8808,8395,8467,8480,7851,8997,9658,8763,8942,7665
38,7766,7689,8644,9145,8806,8397,8470,8477,7855,8996,9660,8762,8942,7663
39,7763,7686,8642,9150,8806,8394,8473,8477,7853,8999,9659,8760,8945,7659
40,7766,7687,8647,9156,8806,8389,8474,8478,7854,8998,9660,8759,8943,7664
41,7764,7686,8647,9149,8806,8392,8474,8479,7858,8988,9658,8759,8940,7665
42,7765,7681,8642,9145,8803,8397,8475,8475,7858,8990,9661,8762,8945,7661
43,7767,7686,8639,9152,8803,8400,8477,8469,7854,9001,9663,8761,8944,7662
44,7768,7692,8640,9150,8801,8393,8470,8471,7853,8999,9659,8760,8941,7665
45,7765,7688,8643,9146,8807,8396,8468,8475,7857,8993,9655,8762,8940,7657
46,7770,7683,8646,9146,8804,8395,8472,8474,7861,8998,9661,8767,8942,7663
47,7769,7689,8641,9150,8803,8397,8478,8478,7861,9000,9662,8759,8937,7665
48,7774,7690,8641,9145,8804,8390,8471,8479,7853,8996,9658,8755,8940,7664
49,7768,7687,8645,9143,8808,8394,8471,8473,7853,8997,9657,8756,8940,7661
50,7766,7686,8645,9140,8804,8391,8471,8472,7857,8997,9657,8760,8940,7664
51,7766,7688,8644,9141,8807,8396,8472,8473,7855,8996,9654,8758,8939,7658
52,7769,7688,8648,9144,8808,8393,8468,8473,7854,8998,9659,8758,8941,7659
53,7765,7687,8647,9145,8811,8389,8467,8477,7856,9001,9660,8763,8941,7661
54,7767,7685,8642,9141,8810,8385,8468,8480,7854,9000,9658,8765,8943,7662
55,7769,7685,8641,9144,8808,8394,8469,8481,7852,8999,9665,8757,8941,7659
56,7764,7685,8641,9149,8806,8395,8468,8483,7852,8998,9662,8755,8940,7659
57,7764,7685,8644,9146,8805,8387,8467,8478,7854,8997,9656,8761,8947,7662
58,7765,7685,8647,9141,8807,8394,8469,8472,7863,8997,9657,8759,8945,7661
59,7766,7686,8643,9140,8805,8398,8473,8471,7863,8998,9658,8758,8940,7663
60,7767,7688,8641,9146,8809,8397,8475,8474,7856,9000,9653,8761,8941,7665
61,7770,7688,8646,9150,8811,8392,8470,8474,7862,9000,9660,8761,8946,7667
62,7767,7688,8647,9152,8810,8400,8473,8475,7866,8992,9662,8759,8943,7663
63,7768,7687,8643,9150,8802,8398,8472,8475,7856,8992,9659,8766,8941,7667
64,7768,7687,8645,9154,8808,8397,8471,8475,7852,9000,9654,8765,8932,7661
65,7771,7687,8649,9154,8811,8391,8467,8472,7855,8999,9656,8761,8935,7661
66,7764,7688,8645,9155,8807,8397,8474,8472,7856,8997,9659,8758,8940,7659
67,7765,7687,8643,9150,8803,8395,8473,8476,7855,9000,9660,8761,8940,7661
68,7768,7689,8645,9148,8811,8397,8474,8477,7855,9000,9657,8761,8939,7659
69,7767,7689,8644,9148,8812,8394,8478,8478,7857,9000,9659,8759,8945,7658
70,7763,7687,8642,9147,8809,8391,8480,8477,7862,8999,9659,8761,8944,7657
71,7766,7683,8648,9145,8806,8393,8470,8471,7856,8989,9655,8763,8942,7658
72,7767,7686,8651,9150,8810,8396,8467,8478,7851,8993,9652,8759,8945,7658
73,7764,7689,8646,9146,8815,8395,8476,8483,7858,9004,9656,8758,8943,7657
74,7768,7687,8643,9142,8809,8394,8474,8474,7860,9004,9663,8759,8941,7661
75,7767,7687,8645,9152,8803,8399,8468,8471,7854,9000,9657,8757,8941,7659
76,7767,7688,8645,9152,8804,8396,8469,8475,7855,9001,9652,8760,8946,7659
77,7764,7688,8643,9149,8812,8401,8475,8476,7855,9001,9657,8761,8943,7659
78,7766,7684,8640,9152,8809,8396,8472,8474,7851,9000,9663,8762,8939,7665
79,7767,7681,8644,9153,8808,8396,8473,8475,7857,9000,9657,8762,8939,7665
80,7772,7683,8647,9149,8804,8395,8472,8477,7859,9000,9658,8761,8943,7665
81,7767,7689,8643,9150,8804,8400,8471,8479,7855,9001,9657,8758,8943,7659
82,7768,7686,8640,9149,8803,8393,8465,8477,7851,9001,9654,8761,8946,7667
83,7766,7681,8643,9149,8806,8392,8473,8479,7856,8999,9655,8761,8940,7663
84,7765,7684,8644,9149,8804,8392,8475,8482,7856,9002,9660,8760,8936,7656
85,7764,7689,8642,9147,8803,8396,8471,8474,7855,9000,9656,8757,8940,7656
86,7768,7686,8641,9150,8803,8390,8468,8469,7858,8994,9654,8757,8945,7662
87,7769,7684,8644,9158,8806,8392,8471,8477,7861,8992,9659,8760,8939,7662
88,7770,7686,8645,9150,8805,8397,8469,8481,7861,8997,9658,8763,8937,7659
89,7769,7686,8642,9141,8803,8393,8469,8475,7857,8996,9660,8761,8943,7661
90,7768,7683,8640,9146,8809,8393,8472,8472,7857,8999,9664,8758,8943,7664
91,7769,7684,8643,9150,8813,8393,8468,8477,7856,9006,9661,8757,8940,7666
92,7762,7691,8643,9149,8810,8398,8470,8479,7854,8994,9656,8756,8938,7658
93,7766,7691,8641,9145,8803,8395,8470,8479,7855,8984,9665,8764,8941,7659
94,7769,7685,8643,9146,8809,8398,8472,8479,7859,8997,9665,8764,8941,7662
95,7768,7683,8643,9146,8807,8396,8470,8470,7857,9002,9659,8760,8941,7663
96,7760,7689,8640,9148,8807,8399,8473,8468,7852,8995,9658,8757,8938,7657
97,7767,7690,8643,9142,8807,8388,8472,8479,7856,8995,9658,8761,8940,7662
98,7768,7689,8647,9142,8810,8393,8476,8477,7861,9001,9656,8762,8940,7669
99,7769,7688,8645,9143,8804,8397,8475,8469,7855,8998,9660,8762,8942,7672
100,7767,7687,8645,9144,8806,8396,8477,8477,7855,8994,9662,8756,8942,7656
101,7765,7687,8647,9145,8808,8388,8473,8480,7857,8998,9658,8757,8942,7657
102,7767,7689,8643,9150,8806,8391,8468,8472,7856,9000,9657,8763,8935,7664
103,7771,7688,8640,9151,8804,8395,8469,8472,7856,8992,9658,8763,8930,7659
104,7770,7685,8643,9148,8803,8397,8475,8476,7858,8991,9660,8758,8937,7653
105,7770,7684,8641,9142,8805,8394,8473,8474,7857,9000,9661,8759,8941,7659
106,7769,7687,8642,9143,8807,8392,8469,8476,7856,9000,9658,8763,8936,7666
107,7763,7687,8647,9146,8808,8398,8471,8481,7858,8996,9656,8756,8931,7660
108,7765,7686,8645,9144,8806,8393,8470,8480,7857,8998,9658,8753,8937,7660
109,7767,7689,8641,9146,8809,8392,8474,8477,7854,8998,9657,8759,8943,7660
110,7766,7690,8645,9146,8806,8392,8474,8474,7852,8998,9661,8767,8945,7662
111,7758,7691,8642,9147,8810,8395,8478,8472,7854,8994,9661,8763,8936,7656
112,7765,7690,8638,9147,8812,8387,8474,8475,7854,8991,9661,8757,8939,7658
113,7766,7686,8646,9147,8814,8395,8474,8474,7858,8997,9662,8755,8944,7660
114,7768,7684,8650,9141,8808,8396,8472,8471,7862,9003,9667,8757,8941,7663
115,7765,7687,8646,9144,8813,8401,8477,8477,7862,9000,9659,8757,8932,7662
116,7771,7686,8649,9145,8811,8395,8474,8482,7857,9001,9657,8759,8938,7664
117,7769,7685,8648,9146,8808,8392,8472,8475,7856,9001,9664,8761,8939,7664
118,7767,7687,8638,9145,8804,8393,8474,8467,7863,8988,9661,8763,8940,7664
119,7769,7686,8640,9148,8802,8395,8473,8470,7862,8988,9660,8760,8944,7662
120,7770,7688,8646,9149,8803,8393,8471,8475,7855,9001,9663,8760,8944,7665
121,7771,7690,8642,9147,8808,8393,8474,8472,7855,9000,9662,8763,8939,7667
122,7768,7688,8638,9146,8809,8395,8477,8468,7862,8995,9660,8764,8936,7664
123,7768,7687,8643,9148,8805,8395,8475,8470,7862,9001,9661,8762,8939,7665
124,7769,7690,8645,9148,8808,8400,8478,8476,7854,8997,9658,8757,8940,7661
125,7772,7688,8641,9146,8804,8395,8476,8474,7854,8984,9660,8759,8945,7656
126,7768,7685,8639,9146,8801,8396,8473,8472,7861,8985,9661,8760,8942,7654
127,7771,7687,8643,9141,8804,8396,8470,8476,7860,8993,9659,8758,8940,7662
240,7766,7690,8644,9145,8810,8399,8474,8482,7855,8996,9659,8758,8938,7659
0,7763,7687,8641,9149,8805,8393,8469,8478,7858,8997,9663,8767,8943,7661
1,7764,7684,8639,9150,8806,8397,8471,8473,7864,8999,9663,8764,8940,7660
2,7767,7685,8640,9148,8808,8390,8472,8475,7860,8999,9666,8756,8939,7662
3,7762,7689,8643,9150,8811,8390,8474,8476,7858,8998,9660,8756,8941,7660
4,7766,7686,8645,9144,8808,8390,8470,8475,7861,8998,9652,8759,8940,7663
5,7766,7682,8647,9139,8806,8394,8469,8476,7861,8997,9656,8757,8937,7661
6,7767,7684,8647,9140,8802,8389,8468,8475,7861,8999,9661,8758,8941,7660
7,7771,7690,8648,9149,8803,8387,8468,8473,7863,9001,9660,8759,8942,7659
8,7768,7691,8646,9151,8805,8395,8472,8471,7859,8986,9662,8759,8942,7660
9,7767,7690,8642,9142,8807,8398,8475,8471,7853,8975,9665,8764,8944,7661
10,7769,7688,8639,9141,8808,8394,8474,8476,7859,8993,9661,8762,8939,7657
11,7772,7688,8641,9149,8801,8388,8473,8477,7866,9008,9662,8757,8934,7660
12,7770,7690,8646,9149,8802,8397,8476,8473,7858,8999,9659,8759,8933,7661
13,7771,7688,8645,9142,8801,8396,8470,8478,7850,8995,9658,8763,8936,7663
14,7765,7685,8642,9144,8803,8394,8466,8483,7862,9001,9662,8757,8934,7661
15,7764,7687,8644,9147,8800,8389,8464,8478,7868,8995,9663,8759,8938,7663
16,7768,7687,8645,9148,8802,8394,8473,8475,7861,8982,9658,8759,8937,7659
17,7774,7685,8641,9139,8800,8391,8473,8479,7859,8988,9659,8755,8941,7662
18,7766,7689,8638,9141,8804,8394,8471,8476,7863,8998,9659,8753,8943,7657
19,7763,7691,8644,9145,8806,8392,8467,8472,7862,8992,9658,8760,8943,7658
20,7766,7688,8647,9148,8806,8395,8472,8481,7856,8990,9656,8759,8940,7660
21,7771,7686,8643,9145,8799,8392,8468,8484,7857,9000,9662,8756,8942,7660
22,7765,7688,8641,9145,8800,8390,8467,8479,7862,9000,9665,8756,8940,7658
23,7766,7686,8646,9145,8804,8393,8476,8478,7861,8996,9663,8761,8938,7662
24,7771,7686,8647,9145,8805,8403,8473,8476,7856,8999,9663,8762,8943,7663
25,7767,7686,8640,9146,8804,8402,8470,8472,7860,9001,9667,8757,8942,7663
26,7766,7687,8636,9144,8804,8385,8473,8473,7863,9000,9665,8757,8941,7666
27,7768,7687,8639,9145,8806,8383,8473,8475,7859,9000,9661,8763,8941,7662
28,7770,7688,8643,9145,8802,8389,8466,8474,7863,9000,9666,8764,8940,7665
29,7763,7688,8638,9145,8805,8396,8467,8479,7864,8996,9660,8758,8941,7665
30,7769,7687,8638,9143,8801,8390,8470,8477,7856,8990,9653,8758,8946,7662
31,7773,7688,8643,9145,8803,8395,8474,8469,7855,8997,9658,8760,8943,7659
32,7769,7686,8641,9144,8804,8397,8469,8474,7856,9003,9661,8762,8946,7670
33,7760,7689,8641,9145,8805,8396,8470,8481,7854,9000,9658,8758,8945,7658
34,7768,7689,8645,9145,8801,8389,8470,8479,7857,8998,9664,8760,8945,7652
35,7768,7690,8642,9147,8805,8397,8472,8477,7860,9001,9667,8757,8941,7660
36,7764,7691,8639,9145,8807,8391,8468,8478,7854,8999,9662,8758,8942,7667
37,7765,7693,8640,9147,8809,8386,8473,8476,7853,8998,9664,8760,8939,7663
38,7770,7693,8640,9143,8807,8389,8471,8474,7859,9000,9666,8759,8941,7662
39,7768,7689,8642,9143,8806,8397,8470,8476,7859,8999,9661,8761,8941,7662
40,7768,7686,8643,9148,8807,8395,8473,8476,7854,8999,9659,8765,8936,7661
41,7769,7686,8642,9148,8807,8393,8476,8474,7854,8999,9664,8764,8938,7662
42,7764,7684,8644,9145,8808,8397,8477,8475,7857,8999,9663,8759,8940,7659
43,7766,7683,8644,9147,8806,8395,8469,8477,7856,8999,9660,8760,8942,7663
44,7766,7687,8640,9148,8808,8399,8469,8473,7859,8999,9659,8759,8942,7665
45,7767,7689,8641,9142,8808,8399,8473,8466,7861,8999,9660,8757,8945,7663
46,7765,7685,8643,9147,8812,8398,8477,8471,7859,8999,9659,8755,8940,7660
47,7769,7688,8645,9152,8806,8387,8472,8475,7861,8999,9663,8759,8939,7662
48,7766,7691,8646,9152,8808,8395,8475,8473,7865,8999,9664,8761,8941,7658
49,7769,7689,8645,9149,8802,8397,8475,8474,7858,8999,9664,8761,8945,7666
50,7766,7689,8643,9152,8801,8398,8475,8479,7856,8999,9659,8758,8939,7669
51,7763,7689,8640,9151,8803,8396,8471,8476,7864,8999,9659,8763,8938,7665
52,7763,7688,8639,9146,8808,8399,8473,8474,7863,8999,9660,8763,8940,7655
53,7770,7686,8639,9144,8802,8394,8477,8477,7853,8999,9660,8758,8939,7659
54,7766,7687,8641,9148,8802,8396,8476,8476,7855,8999,9659,8757,8937,7660
55,7765,7687,8644,9148,8808,8399,8472,8472,7861,9000,9657,8762,8942,7657
56,7770,7686,8650,9150,8809,8399,8475,8473,7856,8998,9658,8762,8937,7659
57,7768,7686,8652,9150,8807,8398,8475,8475,7848,8999,9665,8757,8931,7664
58,7764,7686,8651,9144,8811,8394,8466,8473,7854,9001,9668,8758,8942,7664
59,7764,7686,8645,9143,8817,8393,8466,8473,7861,8994,9664,8758,8946,7657
60,7769,7686,8641,9145,8812,8394,8472,8476,7856,8993,9666,8757,8939,7657
61,7765,7684,8642,9149,8810,8403,8479,8476,7852,8998,9664,8758,8935,7657
62,7768,7684,8641,9147,8804,8397,8476,8479,7853,8998,9660,8761,8942,7660
63,7765,7689,8640,9147,8807,8394,8475,8480,7855,8997,9659,8756,8941,7659
64,7763,7691,8644,9145,8806,8388,8472,8472,7856,8999,9664,8757,8938,7662
65,7764,7688,8645,9148,8807,8399,8476,8471,7858,8998,9663,8762,8935,7658
66,7769,7685,8646,9145,8803,8398,8473,8477,7858,8995,9659,8763,8941,7661
67,7764,7688,8647,9142,8807,8397,8472,8477,7860,8997,9656,8757,8943,7664
68,7765,7687,8643,9142,8807,8390,8467,8476,7861,9004,9658,8757,8946,7666
69,7769,7684,8641,9146,8806,8391,8471,8475,7859,8999,9660,8758,8939,7658
70,7772,7684,8646,9147,8803,8391,8474,8472,7858,8989,9662,8759,8932,7660
71,7764,7686,8642,9146,8805,8394,8467,8477,7859,8995,9660,8759,8931,7664
72,7757,7683,8638,9143,8806,8391,8462,8481,7859,9003,9655,8759,8935,7658
73,7762,7683,8644,9145,8801,8390,8467,8473,7859,8996,9658,8761,8938,7655
74,7769,7687,8642,9146,8802,8392,8473,8469,7861,8996,9661,8758,8940,7660
75,7769,7688,8638,9141,8809,8389,8468,8470,7861,8999,9661,8756,8943,7668
76,7765,7685,8644,9140,8809,8391,8469,8469,7860,8996,9661,8760,8940,7662
77,7765,7683,8643,9143,8801,8389,8468,8476,7863,9000,9667,8764,8940,7662
78,7760,7687,8638,9146,8808,8391,8469,8483,7864,8996,9663,8758,8943,7661
79,7767,7687,8642,9143,8809,8389,8466,8480,7858,8986,9662,8760,8946,7662
80,7766,7685,8647,9145,8808,8397,8469,8479,7857,8995,9665,8763,8934,7660
81,7766,7687,8645,9144,8804,8395,8467,8476,7857,9004,9663,8762,8938,7665
82,7766,7690,8643,9146,8805,8398,8471,8470,7857,8996,9653,8757,8946,7665
83,7770,7684,8643,9142,8802,8394,8471,8467,7854,8996,9656,8758,8941,7664
84,7763,7682,8642,9147,8807,8398,8473,8471,7853,9002,9662,8758,8936,7658
85,7763,7687,8643,9153,8806,8396,8475,8472,7858,9002,9664,8757,8943,7660
86,7767,7689,8644,9149,8808,8394,8477,8470,7865,8999,9662,8758,8941,7663
87,7767,7687,8643,9141,8809,8396,8475,8468,7859,8997,9660,8761,8939,7665
88,7764,7691,8642,9149,8808,8401,8475,8469,7850,8997,9658,8760,8943,7663
89,7765,7694,8643,9155,8807,8397,8474,8470,7857,8999,9659,8759,8941,7661
90,7771,7690,8647,9147,8805,8394,8478,8470,7865,8999,9662,8764,8940,7660
91,7770,7689,8646,9149,8806,8399,8482,8470,7859,8998,9659,8765,8940,7657
92,7767,7691,8641,9157,8806,8395,8472,8470,7852,8999,9661,8761,8942,7659
93,7768,7689,8640,9156,8809,8398,8470,8470,7856,8998,9668,8757,8942,7658
94,7774,7683,8646,9150,8805,8398,8476,8470,7858,8996,9666,8759,8946,7664
95,7767,7687,8646,9153,8804,8401,8482,8467,7857,8995,9654,8757,8942,7662
96,7766,7688,8641,9151,8800,8397,8477,8467,7861,8996,9656,8758,8938,7662
97,7763,7688,8645,9151,8809,8400,8482,8470,7860,8996,9660,8757,8937,7659
98,7766,7689,8653,9153,8810,8392,8477,8470,7854,8995,9657,8760,8947,7664
99,7763,7690,8651,9152,8808,8397,8472,8472,7856,8996,9656,8760,8941,7661
100,7764,7685,8644,9148,8803,8396,8472,8469,7856,8996,9659,8758,8934,7660
101,7764,7683,8641,9150,8809,8393,8479,8467,7852,8996,9657,8754,8936,7656
102,7768,7689,8643,9146,8808,8393,8474,8472,7855,8996,9658,8757,8938,7659
103,7768,7690,8644,9147,8808,8400,8475,8478,7858,8995,9661,8763,8937,7665
104,7767,7687,8645,9152,8811,8397,8478,8477,7860,8996,9662,8763,8941,7666
105,7767,7689,8644,9156,8810,8392,8474,8469,7866,8996,9660,8758,8945,7662
106,7766,7690,8641,9155,8809,8398,8474,8471,7861,8995,9657,8755,8942,7661
107,7769,7686,8643,9152,8810,8400,8477,8479,7852,8997,9659,8760,8941,7664
108,7769,7687,8647,9154,8812,8402,8473,8475,7856,8999,9660,8762,8944,7657
109,7769,7690,8646,9150,8804,8399,8471,8462,7863,8998,9658,8759,8946,7657
110,7767,7689,8641,9149,8804,8400,8482,8467,7860,8997,9658,8759,8936,7661
111,7770,7689,8640,9149,8806,8396,8477,8475,7853,8996,9663,8765,8937,7667
112,7768,7689,8641,9155,8804,8397,8472,8472,7854,8997,9660,8760,8940,7661
113,7770,7686,8643,9153,8799,8392,8469,8470,7860,8999,9661,8756,8942,7664
114,7765,7687,8644,9151,8805,8392,8471,8473,7861,8999,9659,8757,8939,7661
115,7763,7686,8642,9147,8802,8392,8468,8475,7856,8999,9654,8761,8943,7657
116,7764,7683,8640,9143,8803,8399,8473,8475,7854,8999,9657,8757,8943,7654
117,7770,7685,8640,9141,8804,8395,8473,8472,7854,8997,9669,8755,8944,7661
118,7761,7688,8642,9149,8809,8392,8475,8471,7854,8996,9663,8757,8941,7664
119,7758,7687,8643,9148,8814,8389,8476,8476,7856,8997,9655,8759,8939,7663
120,7769,7688,8646,9142,8814,8393,8476,8478,7858,8998,9660,8760,8943,7660
121,7769,7689,8646,9144,8810,8390,8475,8474,7859,8997,9660,8758,8941,7660
122,7763,7687,8643,9150,8811,8390,8476,8471,7861,8997,9659,8759,8938,7662
123,7765,7689,8642,9151,8813,8398,8480,8471,7858,8997,9660,8760,8941,7658
124,7771,7689,8646,9150,8806,8397,8477,8473,7857,8997,9662,8761,8946,7660
125,7767,7687,8645,9151,8806,8405,8474,8473,7861,8997,9660,8762,8944,7665
126,7766,7689,8645,9147,8806,8402,8472,8471,7862,8997,9663,8764,8937,7664
127,7761,7695,8645,9151,8808,8401,8476,8471,7860,8997,9662,8760,8928,7659
240,7765,7694,8646,9155,8808,8398,8477,8474,7855,8997,9660,8760,8934,7668
0,7769,7687,8646,9157,8812,8408,8479,8474,7854,8997,9659,8757,8939,7659
1,7770,7688,8647,9156,8807,8400,8473,8468,7862,8997,9659,8758,8939,7653
2,7765,7694,8647,9155,8808,8402,8475,8469,7864,8997,9657,8757,8938,7655
3,7768,7690,8644,9151,8808,8401,8477,8468,7853,8997,9660,8757,8943,7661
4,7768,7687,8642,9156,8809,8400,8477,8464,7853,8997,9661,8758,8938,7654
5,7769,7689,8642,9151,8809,8395,8471,8470,7860,8997,9660,8763,8938,7657
6,7767,7692,8644,9145,8811,8398,8479,8472,7855,8997,9657,8760,8942,7661
7,7769,7693,8645,9144,8806,8398,8483,8468,7854,8997,9660,8756,8940,7659
8,7768,7694,8642,9146,8804,8395,8476,8475,7863,8997,9663,8760,8935,7661
9,7766,7691,8640,9146,8812,8397,8474,8483,7859,8998,9663,8764,8936,7661
10,7769,7687,8641,9146,8814,8397,8473,8475,7851,8997,9665,8765,8938,7659
11,7766,7686,8644,9146,8809,8397,8471,8471,7856,8997,9659,8763,8940,7657
12,7765,7684,8640,9144,8805,8393,8470,8480,7861,9000,9657,8762,8944,7661
13,7763,7686,8636,9147,8808,8398,8475,8484,7859,8993,9656,8758,8938,7658
14,7768,7687,8639,9143,8802,8397,8473,8476,7859,8987,9659,8759,8939,7663
15,7767,7687,8643,9144,8806,8397,8475,8471,7862,8996,9659,8758,8943,7663
16,7767,7685,8646,9142,8806,8384,8470,8475,7861,9002,9661,8756,8946,7661
17,7762,7686,8646,9142,8804,8389,8471,8481,7860,8996,9660,8757,8942,7659