title: EEG-recording_1, recorded: 22.05.19 00.09.55, timestamp started:2017-11-21T16:17:43.558438-08:00            , sampling:128, subject:, labels:COUNTER INTERPOLATED F3 FC5 AF3 F7 T7 P7 O1 O2 P8 T8 F8 AF4 FC6 F4 RAW_CQ GYROX GYROY MARKER MARKER_HARDWARE SYNC TIME_STAMP_s TIME_STAMP_ms CQ_AF3 CQ_F7 CQ_F3 CQ_FC5 CQ_T7 CQ_P7 CQ_O1 CQ_O2 CQ_P8 CQ_T8 CQ_FC6 CQ_F4 CQ_F8 CQ_AF4 CQ_CMS CQ_DRL, , chan:40, samples:21145, units:emotiv
83,5344,3810,1697,3741,6753,10654,15326,32,7966,1951,8606,10081,16032,7905,
84,5408,3938,1889,3613,6753,10334,15518,32,7838,1631,7134,10273,15840,7457,
85,5472,3810,1953,3485,6753,10206,15326,32,7710,1631,6878,10273,15520,7713,
86,5536,3618,1505,3869,6689,10462,15006,32,7838,1887,8030,10337,15520,7905,
87,5600,3682,1505,3741,6561,10590,15390,32,7902,1887,7902,10401,15648,7969,
88,5664,3874,1633,3165,6305,10526,15582,32,7774,1759,7326,10145,15840,7905,
89,5728,3746,1633,3549,6817,10270,15326,32,7710,1823,8158,10081,15968,7841,
90,5792,3554,1825,3869,7137,10334,15326,32,7838,1951,8158,10209,15904,8097,
91,5856,3810,1761,3549,7009,10654,15454,32,7902,1695,6622,10401,15904,7969,
92,5920,4002,1697,3677,6881,10590,15454,32,7774,1823,6942,10785,15840,7713,
93,5984,3810,2081,3933,7073,10398,15326,32,7966,2079,8286,10849,15776,8033,
94,6048,3682,2017,3485,7073,10590,15134,32,8158,2079,8286,10401,15904,7905,
95,6112,3874,1569,3165,6945,10654,15262,32,7646,1695,7710,10017,15712,7649,
96,6176,3682,1569,3293,6817,10334,15454,32,7390,1503,7262,10465,15712,7969,
97,6240,3490,1825,3549,6625,10142,15518,32,7838,1823,6942,10529,15904,8161,
98,6304,3682,1825,3357,6561,10206,15646,32,7966,1951,7390,10209,15776,7777,
99,6368,3874,1889,3229,6625,10462,15454,32,7774,1823,7390,10145,15776,7841,
100,6432,3874,1761,3421,6945,10782,14878,32,7902,2079,7070,10337,15968,8545,
101,6496,3746,1761,3485,7201,10654,14942,32,7966,1951,7838,10401,15840,8609,
102,6560,3746,1953,3549,6753,10398,15390,32,7838,1567,8350,10145,15648,8225,
103,6624,3874,1761,3677,6433,10270,15454,32,7838,1887,7774,10209,15520,7905,
104,6688,3874,1633,3549,6689,10206,15454,32,7838,2207,7518,10273,15392,8033,
105,6752,3682,1889,3485,7073,10078,15710,32,7902,1823,8030,10273,15776,8289,
106,6816,3746,1825,3485,6817,10206,15582,32,7838,1887,8222,10401,15840,8225,
107,6880,3810,1633,3165,6497,10334,15134,32,7838,2079,8030,10337,15520,7969,
108,6944,3938,1889,3229,6625,10398,15198,32,7838,1759,7966,10017,15776,8097,
109,7008,4002,1889,3677,6817,10526,15326,32,7838,1631,7838,10209,16096,8225,
110,7072,3810,1441,3741,6945,10270,15262,32,7902,1887,7198,10529,15776,7841,
111,7136,3746,1569,3613,6817,9886,15390,32,7838,1951,7262,10465,15776,7777,
112,7200,3746,2081,3485,6753,10334,15326,32,7646,1887,7966,10401,15840,7969,
113,7264,3618,2017,3229,7009,10398,15262,32,7710,1951,7838,10593,15776,7905,
114,7328,3682,1633,3421,7137,10270,15582,32,7838,1951,7838,10529,15776,7969,
115,7392,3938,1505,3357,6817,10782,15390,32,7774,2015,8222,10273,15712,8225,
116,7456,4002,1633,3165,6625,10718,15134,32,7774,2015,7454,10273,15712,8033,
117,7520,3874,1889,3613,6625,10014,15454,32,7902,1951,7262,10529,15904,8033,
118,7584,3746,2017,3805,6689,10270,15710,32,7838,1887,8222,10593,15904,8353,
119,7648,3938,1761,3485,6689,10526,15518,32,7710,2015,8030,10529,15840,8161,
120,7712,4002,1761,3741,6689,9950,15326,32,7774,2143,6686,10273,15776,7585,
121,7776,3746,1889,3677,6945,10206,15326,32,7838,2079,6750,10273,15648,8033,
122,7840,3746,1825,3037,7009,10718,15518,32,7966,1631,7454,10401,15648,8673,
123,7904,4002,1825,3293,6753,10590,15454,32,7838,1247,7198,10273,15648,8161,
124,7968,3874,1889,3869,6689,10398,15134,32,7710,1375,7454,10337,15712,7905,
125,8032,3554,1889,3613,6881,10398,14942,32,7838,1631,8350,10401,15840,8161,
126,8096,3554,1889,3293,6753,10398,14942,32,7774,1759,7966,10273,15904,7905,
127,8160,3618,2017,3613,6817,10462,15198,32,7710,1887,7326,10273,15776,7585,
239,15328,3618,1889,3677,6881,10526,15326,32,7966,2015,7518,10337,15840,7841,
0,32,3682,1825,3357,6817,10526,15006,32,7966,1951,7518,10017,15712,8097,
1,96,3746,2017,3293,7073,10526,15134,32,7774,1695,7326,10017,15712,8161,
2,160,3682,2145,3293,7073,10526,15582,32,7838,1759,7454,10273,15840,8097,
3,224,3682,1825,3165,6753,10334,15262,32,7838,2079,7646,10273,15584,7905,
4,288,3746,1697,3357,6689,10270,14942,32,7710,1951,7198,10273,15520,7841,
5,352,3746,1761,3677,6753,10462,15262,32,7902,1759,7006,10657,15904,7841,
6,416,3746,1569,3485,6561,10270,15454,32,7838,1887,7710,10657,15904,7777,
7,480,3682,1697,3229,6753,10014,15518,32,7582,1823,8094,10209,15712,7713,
8,544,3682,1889,3293,7073,10462,15454,32,7774,1887,7134,9953,15968,8033,
9,608,4066,1697,3549,7009,10654,15454,32,7838,2335,6302,10209,15968,8161,
10,672,4130,1825,3741,6945,10462,15454,32,7774,2015,7774,10465,15648,7777,
11,736,3746,2145,3613,6753,10590,15454,32,7902,1311,8478,10529,15648,8033,
12,800,3554,1633,3485,6497,10334,15326,32,7838,1567,7710,10465,15904,8609,
13,864,3746,1121,3613,6625,9886,15390,32,7646,1951,7710,10337,15776,8161,
14,928,3746,1377,3677,6625,10078,15582,32,7838,1759,8350,10401,15648,7457,
15,992,3810,1889,3549,6561,10526,15390,32,8094,1695,8158,10273,15648,7841,
16,1056,3938,1953,3549,6881,10398,15326,32,7902,1887,7646,10209,15776,8417,
17,1120,4002,1377,3613,6945,10462,15582,32,7774,1823,8094,10401,15776,8289,
18,1184,4066,1377,3485,6561,10590,15518,32,7838,1887,8222,10273,15840,8033,
19,1248,3938,2081,3549,6689,10654,15390,32,7774,2271,7838,10145,15840,8097,
20,1312,3682,2145,3613,6753,10718,15454,32,7710,2335,7774,10337,15712,8289,
21,1376,3746,1761,3485,6561,10590,15326,32,7838,1887,8030,10209,15648,8161,
22,1440,3746,1889,3357,6689,10206,15134,32,7966,1439,8094,10081,15712,7905,
23,1504,3682,1889,3485,6561,10206,15454,32,7838,1695,7774,10145,15712,7969,
24,1568,3938,1633,3613,6625,10462,15646,32,7902,2207,7838,10145,15712,7905,
25,1632,4002,1697,3613,7073,10142,15262,32,7838,2143,7902,10209,15776,7969,
26,1696,3746,1889,3421,7009,10014,15070,32,7902,1823,7838,10401,15776,8097,
27,1760,3810,1569,3549,6497,10142,15134,32,7966,1887,7134,10337,15840,8097,
28,1824,3938,1377,3613,6817,10078,15390,32,7710,1823,7006,10209,15840,7969,
29,1888,3938,1569,3549,6945,10398,15582,32,7710,1503,7646,10593,15712,7841,
30,1952,3810,1505,3485,6689,10974,15518,32,7774,1695,7710,10657,15648,7649,
31,2016,3618,1633,3421,7009,10654,15390,32,7710,2015,7262,10401,15648,7585,
32,2080,3746,1889,3485,7073,10270,15518,32,7902,1759,6878,10145,15520,7905,
33,2144,3746,1953,3677,6689,10462,15646,32,8094,1631,7326,10401,15584,8033,
34,2208,3682,1889,3613,6753,10270,15390,32,7902,1759,8030,10401,15712,7969,
35,2272,3746,1697,3485,7201,9886,15326,32,7774,1823,8030,10209,15968,8289,
36,2336,3746,1953,3421,7073,10462,15966,32,7966,1887,7518,10401,15840,8289,
37,2400,3682,2209,3421,6689,10782,16030,32,7838,1887,7582,10401,15456,8097,
38,2464,3682,1889,3741,6753,10526,15518,32,7774,1695,7390,10209,15520,8289,
39,2528,3682,1313,3869,7073,10462,15390,32,7774,1823,6942,10337,15968,8289,
40,2592,3874,1697,3229,7137,10206,15646,32,7774,1951,7582,10593,15968,8033,
41,2656,3874,2081,3165,7009,9886,15518,32,7838,1695,8222,10273,15840,8097,
42,2720,3682,1761,3293,7009,10334,15454,32,7902,1631,7518,10081,15904,8161,
43,2784,3874,1825,3037,6945,10398,15582,32,7966,2079,6878,10145,15840,7969,
44,2848,3938,1825,3229,6369,9822,15518,32,7902,2271,7390,10273,15776,8033,
45,2912,3682,1697,3741,6561,9950,15518,32,7966,1695,8094,10273,15776,8225,
46,2976,3810,1569,3677,7329,10206,15582,32,7966,1439,7902,10273,15712,8033,
47,3040,4002,1505,3421,7201,10206,15518,32,7774,1887,7454,10273,15520,8289,
48,3104,3810,1633,3421,6689,10398,15390,32,7774,2079,7646,10337,15712,8737,
49,3168,3618,2017,3485,6817,10462,15390,32,7774,1887,7966,10273,16032,7905,
50,3232,3874,1825,3421,6945,10270,15262,32,7582,1887,7838,10337,15904,7265,
51,3296,3874,1377,3485,6945,10334,15070,32,7774,1887,7902,10337,15712,7969,
52,3360,3682,1441,3869,6945,10398,15390,32,8030,1951,7646,9889,15712,8225,
53,3424,3746,1569,3741,6625,10334,15838,32,8030,1887,6814,10017,15456,7649,
54,3488,4066,1377,3357,6689,10526,15646,32,7902,1823,6878,10721,15456,7585,
55,3552,3938,1697,3549,7201,10590,15134,32,7902,1887,8222,10529,15840,7969,
56,3616,3682,2209,3805,6753,10654,15134,32,7838,1823,8094,9825,15776,7905,
57,3680,3746,1825,3549,6177,10526,15326,32,7710,1503,7262,10081,15456,7713,
58,3744,3874,1313,3357,6817,10334,15134,32,7710,1567,7838,10593,15584,7969,
59,3808,3874,1441,3357,7201,10398,14878,32,7838,2015,8542,10529,15904,8673,
60,3872,3682,1953,3357,6945,10782,15198,32,7902,1887,8350,10593,15840,8609,
61,3936,3554,2017,3549,6945,10462,15646,32,7902,1695,7646,10849,16032,7777,
62,4000,3810,1377,3677,7073,10014,15774,32,7774,2207,7518,10465,15968,7969,
63,4064,4066,1633,3549,6945,10014,15518,32,7838,2399,7774,10337,15712,8481,
64,4128,3746,2465,3485,7009,10206,15390,32,7902,1759,7390,10529,15648,8289,
65,4192,3554,2017,3421,7073,10462,15582,32,7838,1631,7070,10337,15712,8225,
66,4256,3874,1185,3357,6881,10462,15454,32,7774,1439,8030,10209,15776,8481,
67,4320,3938,1569,3357,6817,10526,15134,32,7838,1055,8542,10337,15968,8097,
68,4384,3810,2017,3357,7009,10654,15070,32,7902,1631,7902,10337,15840,7969,
69,4448,3554,1569,3485,6945,10462,15390,32,7966,2335,7774,10401,15520,8481,
70,4512,3618,1569,3485,6881,10398,15454,32,7966,1951,7902,10273,15648,8353,
71,4576,4002,1761,3485,6689,10462,15390,32,8030,1759,7518,10209,15776,8097,
72,4640,3938,1697,3549,6561,10142,15582,32,8158,2143,8094,10465,15712,8545,
73,4704,3618,1825,3677,6561,9822,15518,32,7966,1951,8350,10529,15776,8289,
74,4768,3746,1697,3741,6945,10270,15262,32,7646,1695,7966,10145,15648,7329,
75,4832,3938,1441,3613,6625,10526,15454,32,7902,2015,8094,10337,15584,7521,
76,4896,3746,1633,3613,6369,10462,15710,32,8094,2143,7774,10721,15840,8417,
77,4960,3618,2017,3613,6753,10270,15454,32,7710,1887,7006,10401,15840,8033,
78,5024,3810,1825,3485,6945,10206,15326,32,7454,1823,6942,10081,15584,7521,
79,5088,3746,1761,3549,6753,10590,15646,32,7710,1951,7518,10273,15584,7905,
80,5152,3746,1889,3741,6689,10526,15582,32,7838,1823,7710,10529,15712,8033,
81,5216,3746,1761,3741,6817,10270,15390,32,7774,1823,7070,10337,15712,7649,
82,5280,3682,1569,3485,6625,10526,15390,32,7966,2015,7070,10145,16032,7649,
83,5344,3810,1505,3549,6497,10526,15582,32,8222,2015,8030,10401,16224,7969,
84,5408,3938,1697,3485,6753,10398,15646,32,8094,2015,8542,10529,15968,8097,
85,5472,3810,1825,3357,6881,10526,15454,32,7902,2079,8286,10209,15712,8097,
86,5536,3618,1633,3485,6561,10462,15134,32,7838,2015,8222,10209,15904,8033,
87,5600,3746,1761,3613,6497,10014,15326,32,7838,1887,8222,10593,15968,8097,
88,5664,3810,1953,3677,6817,10078,15582,32,7774,1823,7838,10465,15712,8225,
89,5728,3938,1953,3613,6689,10270,15454,32,7710,1823,8094,10145,15584,8161,
90,5792,4002,1953,3549,6753,10398,15326,32,7774,1631,7966,10337,15712,8417,
91,5856,3746,1953,3357,7201,10590,15390,32,7838,1759,7710,10529,15776,8545,
92,5920,3810,1953,3485,7137,10654,15134,32,7902,2143,7902,10145,15776,8161,
93,5984,3938,1761,3741,6753,10398,14942,32,7838,2207,7262,10017,15904,8097,
94,6048,3746,1569,3677,6753,10398,15262,32,7774,1951,6942,10401,15776,8289,
95,6112,3554,1633,3613,6753,10590,15454,32,7838,2079,7774,10593,15776,7841,
96,6176,3746,1953,3549,6625,10590,15518,32,7838,2335,8222,10401,15904,7521,
97,6240,3874,2017,3613,6561,10398,15646,32,7774,2015,7838,10465,15904,7969,
98,6304,3874,2145,3549,6689,10462,15262,32,7646,1823,7646,10657,15840,8225,
99,6368,4002,1953,3421,6753,10398,14942,32,7774,2079,8094,10721,15904,7969,
100,6432,4002,1441,3293,6689,9950,15390,32,7902,2143,8158,10465,15776,8033,
101,6496,3938,1441,3357,6817,10014,15646,32,7902,1695,7582,10337,15584,8225,
102,6560,3938,1505,3293,7201,10334,15390,32,7774,1567,7390,10401,15776,8289,
103,6624,3810,1569,3229,7265,10270,15326,32,7774,1759,7710,10657,16096,8161,
104,6688,3746,1569,3421,7009,10206,15582,32,7774,1823,7390,10721,15776,8161,
105,6752,3938,1569,3613,6945,10462,15518,32,7646,1695,6942,10465,15584,7969,
106,6816,3938,1761,3421,6945,10590,15070,32,7902,1631,7774,10145,15904,7777,
107,6880,3682,2017,3165,6817,10846,15070,32,8030,1887,8542,10209,15840,7777,
108,6944,3810,1953,3485,6625,10846,15582,32,7902,1951,7710,10593,15584,7905,
109,7008,3810,1889,3677,6625,10206,15582,32,7774,1823,6878,10465,15712,7905,
110,7072,3810,2081,3357,6881,10014,15326,32,7774,2015,7454,10209,15776,8225,
111,7136,3810,1761,3357,6881,10270,15646,32,7902,2335,8414,10209,15840,8225,
112,7200,3746,1761,3549,6689,10398,15710,32,7966,1951,8222,10401,15968,7713,
113,7264,3618,2081,3421,6689,10590,15326,32,7838,1631,7838,10465,15776,7649,
114,7328,3746,2017,3421,6561,10590,15390,32,7710,2079,8030,10401,15712,7841,
115,7392,3746,1761,3549,6497,10526,15582,32,7838,2271,8094,10465,15840,8033,
116,7456,3682,1697,3357,6625,10526,15518,32,7966,1887,7966,10529,15840,8225,
117,7520,3810,2017,3357,6817,10270,15390,32,7710,1631,7902,10465,15712,8097,
118,7584,4066,1761,3549,6689,10014,15454,32,7518,1567,7902,10273,15968,8289,
119,7648,3938,1441,3613,6689,10142,15646,32,7838,1631,7902,10081,16032,8673,
120,7712,3746,1633,3485,6817,10142,15582,32,8094,1823,7710,10401,15776,8097,
121,7776,3682,1953,3421,6689,10206,15070,32,7902,1823,7326,10465,15648,7329,
122,7840,3874,2017,3677,6817,10334,15198,32,7774,1759,7518,10209,15584,7905,
123,7904,4002,1825,3485,6945,10462,15710,32,8030,1759,7902,10209,15712,8353,
124,7968,3874,2017,2909,7009,10526,15646,32,8030,1631,8094,10529,16032,8097,
125,8032,3810,1953,3229,7009,10398,15390,32,7774,1759,7902,10529,16160,8225,
126,8096,3874,1313,3805,7009,10398,15262,32,8030,1695,7326,10273,15648,8289,
127,8160,3874,1377,3741,7009,10654,15134,32,7966,1631,7518,10401,15456,8097,
239,15328,3618,2145,3549,6945,10526,15262,32,7646,1951,8542,10401,15904,8097,
0,32,3554,2081,3741,7009,10398,15518,32,7774,2015,8286,10401,16096,8097,
1,96,3746,1633,3869,7137,10654,15454,32,7838,1439,7390,10337,15904,8097,
2,160,3746,1761,3677,7137,10718,15262,32,7710,1695,7582,10401,15712,8289,
3,224,3682,1889,3293,7009,10398,15454,32,7646,2143,7518,10273,15712,8225,
4,288,3618,1953,3357,6945,10078,15582,32,7774,1759,7326,10273,15648,7969,
5,352,3874,1825,3933,6881,10142,15518,32,7902,1823,8030,10401,15712,7905,
6,416,4066,1633,3549,6753,10334,15518,32,7902,2271,8222,10465,15968,8033,
7,480,3810,1761,3037,6625,10462,15582,32,7902,1951,7838,10401,15904,8033,
8,544,3682,1825,3485,6817,10590,15518,32,7902,1311,7710,10273,15712,8289,
9,608,4002,1825,3677,7265,10462,15454,32,7966,1695,7198,10273,15904,8481,
10,672,4002,1825,3421,6753,10142,15390,32,7838,2079,7134,10273,15904,8289,
11,736,3618,1697,3613,6113,10462,15454,32,7838,2079,7838,10337,15840,7905,
12,800,3810,1633,3677,6561,10590,15646,32,7838,2079,7326,10337,15840,8161,
13,864,4130,1825,3357,7137,10206,15390,32,7646,2271,7198,10337,15840,8737,
14,928,3938,1953,3357,6753,10334,15262,32,7710,2207,8286,10273,15712,8417,
15,992,3682,2017,3357,6497,10142,15582,32,7966,1887,8478,10401,15904,7713,
16,1056,3746,2145,3421,6625,9694,15646,32,7838,1951,7710,10337,15968,7905,
17,1120,3874,1953,3677,6689,10206,15390,32,7710,2143,7902,10593,15840,8353,
18,1184,3874,1825,3741,6689,10846,15454,32,7710,1951,8222,10721,15904,8097,
19,1248,3746,1761,3549,6497,10398,15582,32,7838,1759,7902,10529,15904,8161,
20,1312,3746,1761,3549,6625,10270,15518,32,7966,1887,7774,10145,15840,8353,
21,1376,3810,1953,3613,7329,10846,15454,32,7838,2143,7838,10081,15840,8097,
22,1440,3810,1953,3677,7073,10526,15582,32,7710,2079,7262,10401,15712,8161,
23,1504,3938,1953,3549,6689,10206,15390,32,7902,1951,6750,10721,15776,8481,
24,1568,4002,1889,3485,7137,10526,15070,32,7966,1631,7326,10785,15840,8225,
25,1632,3810,1633,3613,6945,10654,15198,32,7774,1695,7902,10465,15648,8225,
26,1696,3810,1825,3677,6433,10206,15646,32,7774,1823,7454,10273,15712,8609,
27,1760,3938,2337,3421,6881,9758,15710,32,7838,1695,7454,10273,16096,8225,
28,1824,3874,2017,3357,6817,10078,15326,32,7902,1375,7582,10273,15968,7841,
29,1888,3746,1569,3677,6625,10590,15262,32,8030,1567,7326,10465,15648,7841,
30,1952,3746,1697,3741,7073,10462,15262,32,7966,1887,7902,10401,15904,7777,
31,2016,3746,1953,3549,7201,10334,15198,32,7774,1503,8222,10273,15840,7841,
32,2080,3810,1761,3421,6753,10526,15326,32,7838,1439,7902,10529,15520,7841,
33,2144,3874,1697,3613,6945,10654,15198,32,7966,2015,8094,10465,15520,7649,
34,2208,3938,1697,3741,7137,10334,14750,32,7774,2143,8478,10337,15840,7905,
35,2272,3874,1761,3677,7073,10142,15006,32,7582,1759,8158,10465,15904,8289,
36,2336,3874,1889,3549,7073,10334,15582,32,7838,1631,7326,10337,15648,7969,
37,2400,4002,1633,3421,7009,10398,15326,32,7902,1823,7134,9889,15584,7905,
38,2464,3746,1441,3485,6881,10142,15198,32,7646,2015,7710,10145,16032,8225,
39,2528,3554,1825,3613,6881,10334,15454,32,7710,1951,8222,10401,16096,8225,
40,2592,3746,2273,3357,6945,10846,15518,32,7966,1503,8030,10401,15712,8097,
41,2656,3874,1889,3357,6881,10526,15518,32,7838,1695,7646,10849,15712,8161,
42,2720,3682,1313,3741,6625,10014,15390,32,7646,2335,7902,10785,15968,8161,
43,2784,3810,1761,3805,6689,10334,15390,32,7902,2207,7710,10337,15968,8033,
44,2848,3810,2081,3677,6753,10398,15582,32,8030,1567,7006,10337,15776,7969,
45,2912,3618,1505,3613,6689,9950,15390,32,7838,1567,7326,10657,15840,7969,
46,2976,3554,1441,3485,6881,10142,15262,32,7710,1823,8030,10145,15840,8161,
47,3040,3746,1889,3549,7137,10718,15326,32,7838,1695,8030,9953,15904,8161,
48,3104,3874,1953,3741,6945,10590,15518,32,7774,1567,7902,10145,15776,8097,
49,3168,3810,1697,3485,6561,10206,15582,32,7774,1695,8158,10337,15648,8417,
50,3232,3810,1889,3293,6689,10398,15198,32,7966,1823,8158,10337,15776,8801,
51,3296,3682,2017,3549,7009,10590,14942,32,7774,1759,7646,10145,16032,8161,
52,3360,3554,1889,3805,7009,10654,15326,32,7710,1695,6750,10081,15840,7585,
53,3424,3618,1825,3741,6689,10974,15454,32,7966,1823,7006,10465,15584,8161,
54,3488,3874,1889,3677,6689,10910,15198,32,7902,1887,8414,10657,15712,8417,
55,3552,3810,2017,3741,6753,10526,15518,32,7774,1823,7966,10337,15776,8161,
56,3616,3746,1889,3677,6817,10526,15966,32,7774,1951,6622,10401,15776,7969,
57,3680,4002,1953,3357,6753,10590,15646,32,7710,2143,7390,10593,15776,8097,
58,3744,4194,2017,3229,6689,10334,15198,32,7774,1887,7902,10209,15712,8545,
59,3808,4130,1953,3357,6433,10078,15262,32,7966,1439,7134,10081,15520,8481,
60,3872,3938,1825,3613,6369,10078,15774,32,7902,1439,7070,10657,15712,7777,
61,3936,3746,1761,3549,6561,10462,15838,32,7774,1951,7454,10657,15776,7585,
62,4000,3874,1825,3357,6817,10846,15326,32,7902,2015,7646,10145,15520,8161,
63,4064,4002,1889,3485,6817,10654,15198,32,7774,1439,8030,10145,15456,8097,
64,4128,3810,1953,3677,6497,10334,15134,32,7838,1695,8094,10657,15840,7905,
65,4192,3682,1953,3357,6625,10334,15006,32,7902,2207,7902,10593,16032,8097,
66,4256,3810,1569,3229,7201,10142,15518,32,7774,2015,8030,10273,15904,8225,
67,4320,3938,1569,3613,7201,10206,15646,32,7646,1759,7966,10465,15776,8161,
68,4384,3746,1761,3613,6561,10334,15198,32,7774,1951,7966,10529,15776,8225,
69,4448,3682,1697,3101,6369,9950,15390,32,7902,1631,8030,10145,15776,7969,
70,4512,3938,1633,3037,6625,10206,15902,32,7774,1247,7646,10337,16032,7585,
71,4576,4002,1569,3421,6689,10718,15326,32,7646,1567,7518,10785,16032,7841,
72,4640,3810,1441,3549,6689,10462,15134,32,7646,2079,7838,10401,15776,8289,
73,4704,3746,1633,3421,6561,10398,15646,32,7710,2015,8222,10081,15520,8161,
74,4768,3618,1761,3421,6497,10782,15582,32,7774,1823,8222,10593,15648,8033,
75,4832,3682,1633,3421,6689,10718,15390,32,7774,1823,8094,10721,15776,8097,
76,4896,3810,1825,3357,6753,10398,15518,32,7774,1823,8222,10529,15712,7969,
77,4960,3554,2017,3293,6753,10782,15582,32,7774,1759,7838,10465,15904,7969,
78,5024,3490,1953,3357,7137,10718,15390,32,7710,1759,7262,10401,15968,8353,
79,5088,3874,1953,3549,7201,10270,14942,32,7838,1631,7518,10529,15712,8545,
80,5152,3810,1953,3421,6753,10526,15006,32,8158,1759,7518,10465,15584,7905,
81,5216,3554,1761,3037,6561,10654,15582,32,7966,2015,7326,10017,15840,7585,
82,5280,3618,1825,3165,6881,10142,15454,32,7646,1887,8094,9889,15776,7969,
83,5344,3810,1889,3485,6881,9950,15134,32,7774,1695,8478,10401,15520,8097,
84,5408,3746,2081,3549,6433,10398,15454,32,7902,1951,7710,10529,15520,7777,
85,5472,3810,1953,3613,6753,10398,15582,32,7710,2207,7582,10273,15648,8033,
86,5536,4066,1697,3869,7265,10334,15262,32,7646,2015,8222,10337,15712,8289,
87,5600,3874,1761,3741,6817,10526,15518,32,7838,1951,8350,10465,15840,8161,
88,5664,3746,1889,3485,6369,10590,15774,32,7902,1887,8030,10465,15712,7969,
89,5728,3874,1697,3677,6945,10526,15582,32,7838,1887,7582,10273,15776,8033,
90,5792,3746,1953,3677,7265,10270,15518,32,7774,1951,7582,10209,15776,8097,
91,5856,3682,2209,3421,6689,9950,15518,32,7774,1887,8094,10593,15648,8097,
92,5920,3938,1953,3357,6561,10014,15454,32,7710,1695,7902,10721,15776,7905,
93,5984,3618,1761,3613,6625,10398,15454,32,7774,1887,6942,10145,16032,7905,
94,6048,3042,1889,3549,6497,10462,15710,32,7966,1759,7454,10081,15776,8289,
95,6112,3426,1825,3357,6561,10270,15646,32,7838,1375,8542,10273,15648,8225,
96,6176,4130,1761,3549,6689,10334,15326,32,7774,1567,8414,10145,15840,7585,
97,6240,3938,1761,3485,6817,10590,15582,32,7966,1951,8030,9889,15776,7649,
98,6304,3618,1761,3165,6817,10654,15774,32,7966,1759,8350,10145,15840,8417,
99,6368,3746,1889,3357,6817,10718,15390,32,7838,1695,8350,10401,15840,8481,
100,6432,3938,1825,3741,6561,10654,15198,32,7902,1951,8094,10401,15776,7905,
101,6496,3810,1889,3613,6497,10206,15710,32,7774,1823,8350,10209,15776,7905,
102,6560,3618,2017,3421,7009,10014,15518,32,7710,1695,8542,10145,15584,8161,
103,6624,3682,1761,3677,7201,10526,15070,32,8030,2015,7710,10273,15584,7969,
104,6688,4002,1825,3421,6817,11038,15390,32,8094,2143,7070,10337,15904,8161,
105,6752,4066,1825,3165,6625,10718,15710,32,7774,1695,7774,10465,16096,8545,
106,6816,3810,1697,3229,6689,10078,15262,32,7710,1439,8286,10401,15968,8097,
107,6880,3682,1889,3357,6497,10270,14814,32,7838,1823,7774,10081,15776,7777,
108,6944,3682,1889,3549,6561,10526,15070,32,7902,2015,7774,10081,15712,8033,
109,7008,3746,1697,3485,7009,10526,15454,32,7646,1887,7902,10465,15776,8225,
110,7072,3938,1761,3485,6945,10590,15454,32,7646,1759,7838,10721,16032,8097,
111,7136,3938,1825,3613,6433,10526,15326,32,7774,1695,7518,10337,15904,8161,
112,7200,3810,1889,3549,6753,10462,15390,32,7838,1823,6878,9953,15648,8161,
113,7264,3682,2017,3357,7201,10398,15518,32,7774,1823,7134,10273,15840,7905,
114,7328,3618,1761,3677,6945,10334,15582,32,7774,1439,8478,10401,15968,7777,
115,7392,3682,1633,3933,6817,10398,15646,32,7710,1375,8414,10081,15776,7905,
116,7456,3810,1953,3549,7201,10462,15582,32,7646,2143,7070,10209,15776,8161,
117,7520,3874,2017,3165,7009,10334,15582,32,7838,2335,7198,10529,15840,8545,
118,7584,3874,2017,3357,6689,10334,15646,32,7774,1951,8094,10401,15648,8545,
119,7648,3874,2017,3357,6945,10590,15262,32,7838,1823,7774,10337,15584,8161,
120,7712,3746,1825,3037,6881,10462,14942,32,8094,2143,7710,10529,15840,8097,
121,7776,3554,1697,3229,6433,10462,15198,32,7966,2079,8286,10593,15968,8289,
122,7840,3618,1825,3805,6497,10590,15646,32,7838,1951,7454,10401,15840,8097,
123,7904,3618,1889,3741,6753,10654,15518,32,7902,2015,6814,10337,15648,8225,
124,7968,3490,1825,3357,6817,10718,15070,32,7838,2015,7262,10401,15648,8417,
125,8032,3746,1889,3229,6625,10462,14942,32,7774,1951,7198,10401,15712,8417,
126,8096,4002,2081,3485,6689,10270,15454,32,7902,1951,7262,10273,15904,8545,
127,8160,3810,2145,3677,6753,10398,15710,32,7966,2015,7838,10017,15840,8289,
239,15328,3682,1761,3229,6753,10206,15134,32,7838,1951,7902,10209,15712,8033,
0,32,3938,1505,3165,6753,10014,14878,32,8030,1887,8094,10465,15584,8225,
1,96,3746,1633,3805,6561,10270,15518,32,8286,1951,8350,10465,15584,7969,
2,160,3618,1889,3613,6497,10398,15774,32,7902,1823,7454,10209,15648,7649,
3,224,3810,1825,2973,7073,10334,15262,32,7582,1631,6942,10017,16032,8289,
4,288,3810,1697,3165,7329,10526,14878,32,7710,1695,7006,10017,16032,8673,
5,352,3746,1825,3741,6497,10590,15326,32,7966,2143,7326,10145,15648,7841,
6,416,3938,1889,3741,6305,10590,15710,32,7710,2143,8094,10209,15584,7521,
7,480,3810,1889,3485,6945,10462,15390,32,7710,1887,7838,10273,15968,8097,
8,544,3554,1953,3293,6945,10654,15198,32,7902,1759,7198,10145,16096,8097,
9,608,3810,1953,3485,6433,10590,15198,32,7902,1695,7582,10145,15840,8161,
10,672,4002,1889,3805,6945,10206,15070,32,7774,1503,7262,10657,15648,8609,
11,736,3682,1825,3485,7777,10398,15070,32,7710,1631,6750,10785,15840,8353,
12,800,3426,1761,3101,7521,10782,15198,32,7838,1695,7902,10273,15968,7905,
13,864,3810,1697,3165,6689,10334,15198,32,7838,1567,8286,10209,15712,7969,
14,928,4066,1505,3357,6625,10206,15070,32,7774,1823,7774,10657,15584,8097,
15,992,3746,1185,3357,6753,10718,15262,32,7838,1887,7774,10465,15840,8033,
16,1056,3618,1633,3357,6625,10334,15646,32,7966,1439,7518,10145,15968,8033,
17,1120,4002,2209,3421,6689,10142,15710,32,7774,1695,7582,10337,15776,8097,
18,1184,4066,1825,3293,6689,10654,15198,32,7710,2207,7518,10593,15776,8161,
19,1248,3682,1633,3229,6625,10462,15006,32,7966,1759,7070,10465,15776,8225,
20,1312,3682,1889,3485,6689,10142,15454,32,7902,1503,7326,10593,15776,8353,
21,1376,3810,1633,3677,6817,10526,15582,32,7646,1759,7582,10465,15776,8481,
22,1440,3746,1377,3293,7073,10718,15390,32,7838,1951,6942,10209,15776,8225,
23,1504,3746,1953,3101,7137,10462,15454,32,7902,1695,6750,10337,15712,7969,
24,1568,3938,2081,3549,6817,10398,15646,32,7710,1503,7134,10465,15712,7905,
25,1632,3938,1633,3613,6561,10206,15454,32,7838,1887,7134,10273,15776,7969,
26,1696,3938,1889,3421,6817,10078,15390,32,8030,2079,7326,10401,16096,8097,
27,1760,3810,1953,3485,6881,10270,15518,32,7902,1823,7646,10593,16160,8161,
28,1824,3682,1441,3357,6817,10270,15582,32,7774,1951,7646,10465,16032,8097,
29,1888,3810,1441,3165,6689,10334,15454,32,7902,2271,7198,10209,16032,7905,
30,1952,3618,2017,3485,6689,10590,15454,32,7902,1887,7070,10273,15904,8033,
31,2016,3298,2209,3805,7201,10526,15710,32,7774,1823,7646,10657,15904,8481,
32,2080,3682,2017,3613,7201,10654,15646,32,7774,1951,7902,10529,15904,8417,
33,2144,4194,2017,3421,6369,10654,15198,32,7774,2015,7774,10401,15776,7969,
34,2208,3746,1889,3421,6369,10206,15262,32,7774,2015,7646,10657,15648,8225,
35,2272,3362,1761,3421,7265,9950,15326,32,7838,1823,7902,10785,15968,8545,
36,2336,3746,1825,3357,7265,10014,15070,32,7774,1951,7838,10273,15968,7905,
37,2400,3938,1825,3037,6689,10014,15262,32,7646,2207,7646,10209,15520,7777,
38,2464,3810,1697,3229,6753,10270,15582,32,7710,2079,8158,10401,15456,8033,
39,2528,3682,1697,3677,6881,10462,15518,32,7710,1887,8350,10401,15648,7841,
40,2592,3810,1953,3741,6625,10398,15518,32,7710,2271,7774,10401,15840,7905,
41,2656,3746,1953,3421,6497,10398,15646,32,7966,2271,7326,10401,15776,8161,
42,2720,3746,1825,3357,6497,10462,15454,32,7966,1631,7774,10465,15584,7841,
43,2784,4002,1825,3613,6945,10718,15390,32,7646,1503,7966,10273,15712,7457,
44,2848,4130,1889,3677,7201,10462,15390,32,7710,1951,7838,10017,15904,7969,
45,2912,3874,1889,3421,6945,9886,15454,32,7902,2143,8158,10145,15776,8353,
46,2976,3618,1889,3357,6881,10142,15454,32,7838,1823,7774,10401,15776,8353,
47,3040,4002,2145,3485,7009,10718,15134,32,7774,1759,7198,10209,16032,8161,
48,3104,4130,1889,3357,6625,10526,15006,32,7838,2015,7646,10145,15776,7841,
49,3168,3746,1505,3293,6561,10398,15134,32,7902,2015,8734,10337,15584,7841,
50,3232,3618,1761,3293,6817,10718,15454,32,7710,1887,8158,10273,16160,8033,
51,3296,3810,1889,3357,6881,10782,15582,32,7646,1951,7006,10081,16032,8097,
52,3360,3746,1697,3421,7073,10590,15454,32,7774,2207,7262,10145,15648,8353,
53,3424,3682,1889,3485,7201,10398,15582,32,7774,1823,7454,10273,15904,8481,
54,3488,3746,1953,3485,7201,10270,15390,32,7838,1631,7326,10465,16032,8225,
55,3552,3746,1825,3549,7073,10270,15198,32,7774,2143,7902,10337,15584,8033,
56,3616,3810,1761,3293,6561,10206,15198,32,7838,2207,8286,10209,15520,8033,
57,3680,3746,1633,3165,6369,10270,15198,32,8094,2079,7262,10465,15584,8225,
58,3744,3682,1761,3549,6753,10590,15198,32,8030,2015,6814,10401,15648,8033,
59,3808,3746,1953,3421,6945,10398,15582,32,7838,1951,7902,9761,15904,7713,
60,3872,3810,1697,3549,6625,9950,15710,32,7966,2015,8478,9825,15840,7649,
61,3936,3810,1825,3869,6433,10142,15454,32,7902,1887,7390,10465,15648,7585,
62,4000,3810,2337,3741,6561,10206,15454,32,7646,1503,6622,10593,15712,7905,
63,4064,3746,2017,3549,6561,9886,15390,32,7774,2015,7518,10401,15904,8545,
64,4128,3746,1633,3677,6625,10206,15454,32,7966,2527,8094,10337,15840,8481,
65,4192,3874,1889,3549,6753,10846,15518,32,7902,2015,7902,10337,15584,7777,
66,4256,3810,2081,3549,6689,10718,15454,32,7902,1759,7902,10209,15648,7969,
67,4320,3746,1889,3677,6881,10334,15390,32,7902,2015,8094,10145,16032,8545,
68,4384,3874,1697,3549,7201,10590,15454,32,7838,2015,7838,10273,16032,8353,
69,4448,3746,1761,3485,6817,10526,15518,32,7774,2015,7454,10657,15776,8225,
70,4512,3618,1889,3613,6433,10078,15454,32,7774,1951,7454,10657,15648,8225,
71,4576,3746,1889,3485,6497,10206,15518,32,7710,1759,7518,10529,15904,8097,
72,4640,4002,1889,3421,6753,10654,15454,32,7838,1951,7518,10337,15968,7585,
73,4704,3938,2017,3485,6625,10398,15582,32,8030,2335,7262,10209,15840,7585,
74,4768,3746,2209,3421,6241,9950,15710,32,7902,2143,7838,10209,15712,8033,
75,4832,3810,2081,3485,6561,10526,15582,32,7838,1759,8478,10209,15712,8225,
76,4896,3810,1889,3869,7201,10654,15454,32,7902,1887,7774,10145,15776,8097,
77,4960,3874,1825,3741,6945,10142,15518,32,7966,2079,7198,10081,15904,8033,
78,5024,3874,1825,3293,6625,10398,15518,32,7838,2079,7774,10209,15840,8609,
79,5088,3746,2017,3229,6881,10910,15454,32,7774,1823,8094,10273,15648,8481,
80,5152,3618,2017,3421,6625,10398,15198,32,7774,1631,7774,10401,15776,7457,
81,5216,3810,1825,3421,6497,10142,15006,32,7774,1695,8030,10593,15968,7585,
82,5280,4066,1761,3421,7265,10526,15262,32,7838,1887,7646,10721,15712,8545,
83,5344,3874,2017,3613,7201,10654,15518,32,7838,1759,6686,10465,15520,8673,
84,5408,3682,2209,3741,6369,10398,15134,32,7710,1695,7262,10337,15712,8289,
85,5472,3746,1953,3677,6369,10462,14942,32,7646,1887,8030,10529,15712,8097,
86,5536,3746,1825,3613,6689,10462,15262,32,7710,1951,8094,10465,15712,7777,
87,5600,3746,2017,3485,6561,9950,15582,32,7838,2143,7902,10145,15648,7905,
88,5664,3874,1953,3229,6369,9822,15582,32,7710,2335,7582,10273,15648,8353,
89,5728,3938,1441,3165,6625,10270,15582,32,7710,1951,7454,10529,15584,8033,
90,5792,3618,1377,3549,6689,10526,15326,32,7902,1759,7454,10529,15776,7713,
91,5856,3426,1953,3677,6689,10398,15070,32,7902,1951,7518,10337,15904,8161,
92,5920,3874,2081,3421,6625,10526,15326,32,7710,1759,7454,10081,15840,8225,
93,5984,4130,1761,3485,6433,10654,15774,32,7838,1567,7134,10017,15840,7777,
94,6048,3746,1761,3613,6561,10654,15582,32,7838,1759,7326,10145,15840,7713,
95,6112,3746,1761,3549,6689,10590,15198,32,7838,1951,7646,10209,15904,8161,
96,6176,3810,1761,3549,6817,10398,14942,32,8094,1823,7454,10081,15776,8097,
97,6240,3554,1761,3357,6753,10206,14942,32,8030,1759,7326,10209,15840,7905,
98,6304,3554,1505,3165,6625,10142,15262,32,7582,1951,8158,10529,15904,8033,
99,6368,3938,1569,3293,7009,10334,15326,32,7710,1951,8222,10721,15648,8033,
100,6432,3938,1953,3357,7073,10526,15262,32,7966,1439,7198,10593,15456,8033,
101,6496,3746,1889,3293,6561,10398,15518,32,7838,1311,7134,10401,15776,8161,
102,6560,3938,1761,3293,6753,10206,15774,32,7710,1631,7902,10209,15904,8033,
103,6624,3938,1825,3293,6945,10142,15582,32,7710,1887,7774,10337,15712,7841,
104,6688,3682,1441,3357,6625,10142,15390,32,8030,2207,6878,10337,15648,7969,
105,6752,3618,1185,3613,6881,10142,15390,32,8094,2335,7262,10273,15776,8353,
106,6816,3746,1825,3677,7137,10206,15518,32,7902,2015,8158,10337,15840,8545,
107,6880,3682,2273,3613,6753,10398,15518,32,7774,1887,7582,10529,15840,8609,
108,6944,3682,2017,3613,6753,10526,15262,32,7838,1823,7646,10337,15776,8289,
109,7008,3810,1697,3549,6945,10462,15262,32,7838,1567,8670,10081,15776,7841,
110,7072,3682,1889,3485,6817,10270,15390,32,7710,1695,7710,10337,15904,7841,
111,7136,3618,2273,3485,6625,10334,15326,32,7710,1951,6686,10657,15904,8289,
112,7200,3938,2081,3677,6561,10462,15390,32,7838,1759,7454,10401,15840,8417,
113,7264,3810,1697,3677,6689,10398,15454,32,7838,1567,7710,10081,15840,8097,
114,7328,3362,1697,3293,6625,10206,15326,32,7774,1631,7070,10401,15904,8225,
115,7392,3682,2017,3101,6625,10078,15390,32,7646,1759,7134,10593,15904,8481,
116,7456,3938,1953,3293,7009,10142,15454,32,7646,1759,7454,10145,15904,8481,
117,7520,3746,1825,3485,7009,10846,15390,32,7774,1695,7070,10081,15776,8417,
118,7584,3874,1825,3613,6881,10782,15198,32,7966,1823,7262,10273,15840,7969,
119,7648,3938,2017,3613,7009,9886,15198,32,7966,1887,7774,10337,15904,7457,
120,7712,3682,2209,3101,6817,9950,15454,32,7902,1823,7966,10529,15968,7841,
121,7776,3682,1889,3037,6689,10718,15390,32,7902,1887,8222,10465,15904,8289,
122,7840,4002,1697,3741,6881,10654,15198,32,7838,1759,8094,10209,16096,8417,
123,7904,3874,1889,3933,6561,10334,15326,32,7774,1823,8158,10209,16096,8481,
124,7968,3810,1825,3421,6689,10206,15838,32,7454,1887,8350,10529,15840,8161,
125,8032,4002,1761,3357,7329,10462,15390,32,7454,2079,7646,10529,15968,7905,
126,8096,3938,2145,3485,6881,10846,14814,32,7838,2207,7070,10145,16160,7969,
127,8160,3746,2145,3293,6497,10462,15262,32,7838,2271,7582,10145,15776,8161,
239,15328,3682,1953,3293,6817,10014,15454,32,7838,2015,7582,10401,15456,8161,
0,32,3938,1953,3549,7009,10142,15070,32,8030,2079,7198,10209,15648,8033,
1,96,3746,1889,3677,6945,10206,15134,32,7838,2399,8030,9953,15648,8033,
2,160,3234,1825,3741,6945,10334,15582,32,7710,2271,8158,10529,15648,8225,
3,224,3426,1953,3677,6817,10846,15518,32,7902,1631,7006,10849,15840,8545,
4,288,4130,1889,3357,6753,10590,15454,32,7774,1439,7198,10337,15776,8609,
5,352,4002,1825,3357,6753,9886,15646,32,7646,1503,8030,10209,15648,8289,
6,416,3618,1761,3485,6433,10142,15134,32,7774,1631,8158,10529,15904,8097,
7,480,3810,1441,3421,6497,10654,15006,32,7902,1759,7582,10273,15904,8161,
8,544,3810,1441,3485,6817,10526,15582,32,7838,1759,7262,10273,15840,8161,
9,608,3618,1761,3677,6753,10782,15582,32,7774,1823,7710,10529,15776,7905,
10,672,3938,1825,3613,6881,10974,15006,32,7774,2143,7838,10465,15776,8033,
11,736,4066,1633,3549,7073,10462,15326,32,7774,2271,8094,10273,15840,8417,
12,800,3938,1569,3421,6689,10014,15710,32,7902,2207,8222,10209,15776,8161,
13,864,3746,1697,3165,6433,10334,15326,32,7838,1951,8094,10081,15840,7649,
14,928,3810,1825,3421,6881,10398,15454,32,7582,1567,8222,10081,15904,7521,
15,992,3874,1889,3677,6881,10142,15710,32,7838,1631,8414,10209,15968,8097,
16,1056,3810,1697,3485,6561,10334,15454,32,8094,1887,7774,10465,15968,8289,
17,1120,3746,1569,3293,7073,10654,15390,32,7838,1695,7006,10721,15904,7841,
18,1184,3746,1953,3485,7137,10462,15582,32,7838,1695,7710,10593,15712,7969,
19,1248,3810,2209,3613,6561,10398,15390,32,8158,1887,8030,10593,15520,8481,
20,1312,3874,1953,3421,6625,10718,15326,32,8094,2015,7006,10849,15648,8481,
21,1376,3682,1505,2973,6753,10526,15454,32,7838,2015,7006,10849,15712,8353,
22,1440,3618,1569,3165,6625,10078,15582,32,7966,2015,8030,10593,15648,8417,
23,1504,3874,1569,3677,6945,10142,15646,32,8094,1951,8094,10401,15584,8417,
24,1568,3938,1761,3677,7201,10334,15518,32,7838,1887,7070,10337,15648,8417,
25,1632,3682,1825,3293,6753,10142,15582,32,7646,2015,7262,10337,15584,8545,
26,1696,3746,1825,3293,6625,10014,15710,32,7774,1951,8094,10081,15456,8097,
27,1760,3810,2081,3421,6817,10270,15454,32,7902,1759,8158,10017,15648,8225,
28,1824,3682,1889,3613,6817,10526,15070,32,7710,1695,7710,10273,15904,8801,
29,1888,3682,1505,3741,6689,10590,15006,32,7646,1759,8030,10529,15776,8289,
30,1952,3810,1697,3549,6689,10590,15326,32,7838,1887,8030,10529,15648,7841,
31,2016,3746,2017,3485,6561,10654,15518,32,7966,1887,7006,10209,15648,7905,
32,2080,3554,1889,3805,6305,10398,15198,32,7774,2015,7518,10209,15648,8033,
33,2144,3746,1825,3613,6625,10270,15198,32,7710,2143,8414,10465,15584,7969,
34,2208,4066,2017,3101,6881,10334,15582,32,7902,2143,7646,10465,15776,7841,
35,2272,3810,1697,3229,6817,10142,15646,32,7902,2015,7006,10145,15840,7521,
36,2336,3554,1697,3549,6881,9950,15518,32,7838,1951,7134,10273,15904,7905,
37,2400,3746,2209,3613,7009,10142,15390,32,7966,2079,7134,10337,16032,8545,
38,2464,3874,1953,3485,7009,10526,15390,32,7902,2079,7518,10337,16032,8033,
39,2528,3682,1441,3357,7009,10462,15518,32,7582,2015,7454,10145,15840,7521,
40,2592,3874,1825,3613,6945,10142,15454,32,7646,1887,7070,9953,15712,7841,
41,2656,3938,2401,3805,6817,10206,15390,32,7838,1759,7710,10017,15584,8161,
42,2720,3746,1953,3485,6881,10590,15582,32,7838,1823,7902,10593,15584,7969,
43,2784,3746,1697,3229,6817,10654,15774,32,7710,1887,7774,10785,15648,7969,
44,2848,3874,2145,3421,6817,10462,15646,32,7774,1951,8158,10593,15520,8545,
45,2912,3682,2017,3741,6945,10526,15390,32,7838,2079,8350,10593,15648,8481,
46,2976,3810,1569,3357,6753,10526,15454,32,7902,2079,7582,10657,15776,8033,
47,3040,3938,1569,2973,6625,10718,15582,32,7838,1759,7326,10593,15648,8161,
48,3104,3810,1825,3229,6881,10846,15198,32,7774,1759,7710,10465,15776,8353,
49,3168,3682,1825,3549,7073,10462,14686,32,7774,1887,8094,10337,15776,7905,
50,3232,3746,1697,3293,6817,10270,14814,32,7710,1695,8222,10273,15264,8097,
51,3296,3874,1761,3037,6817,10654,15326,32,7710,1759,7838,10401,15520,8673,
52,3360,3810,2017,3229,7457,10718,15902,32,7902,2015,7262,10401,16096,8545,
53,3424,3682,2081,3741,7649,10462,15966,32,7774,1695,7198,10465,15904,8225,
54,3488,3554,1953,3997,6881,10846,15326,32,7774,1439,7838,10337,15648,8225,
55,3552,3490,1953,3549,6369,10974,15326,32,7838,1823,7966,10081,15840,7969,
56,3616,3490,1697,3293,6625,10270,15966,32,7710,1759,7710,10209,15904,7905,
57,3680,3746,1441,3485,6753,10014,15518,32,7838,1567,7774,10401,15840,8353,
58,3744,3938,1697,3549,6497,10718,15070,32,8030,1951,8222,10209,15840,8225,
59,3808,3746,1889,3293,6625,10590,15454,32,7902,2079,8478,10273,15840,7777,
60,3872,3682,1697,3229,6945,9758,15582,32,7838,1759,7774,10465,15968,7969,
61,3936,3682,1825,3485,6881,9822,15454,32,7838,1567,7134,10273,15968,8417,
62,4000,3618,2017,3613,6625,10654,15454,32,7966,1951,7134,10273,15712,8417,
63,4064,3554,1953,3677,6689,10782,15518,32,8094,2015,7390,10529,15776,7969,
64,4128,3746,1569,3613,6881,10654,15454,32,7838,2079,7390,10529,15904,7905,
65,4192,3682,1697,3613,6753,10718,15390,32,7582,2271,7326,10273,15840,8097,
66,4256,3234,2081,3869,6497,10398,15454,32,7710,2079,7390,10337,15840,7841,
67,4320,3426,1825,3869,6689,10334,15390,32,7774,1759,7390,10337,15840,7649,
68,4384,3874,1441,3293,6625,10398,15518,32,7774,1695,7774,10337,15776,8417,
69,4448,3874,2017,3229,6561,10398,15582,32,7774,1695,8222,10337,15712,8673,
70,4512,3746,2273,3613,6689,10654,15262,32,7710,1759,8478,10337,15648,7841,
71,4576,3810,1569,3613,6689,10590,14942,32,7902,1951,8030,10337,15776,7713,
72,4640,3746,1441,3485,6689,10078,15326,32,7966,1695,7902,10529,15904,8481,
73,4704,3746,1889,3805,7521,10270,15646,32,7838,1567,8222,10529,15840,8609,
74,4768,3810,1825,3805,7713,10654,15582,32,7902,2079,7518,10529,15904,7841,
75,4832,3810,1761,3613,6753,10526,15454,32,7966,2079,7326,10593,15968,7713,
76,4896,3490,1953,3613,6753,10718,15326,32,7774,1695,7454,10273,15904,8033,
77,4960,3234,1697,3677,7457,10590,15518,32,7646,1759,7326,10273,15904,8033,
78,5024,3490,1377,3741,6881,10334,15902,32,7838,2015,7134,10529,15904,8161,
79,5088,3810,1761,3677,6113,10654,15582,32,7902,2015,7006,10337,15776,8609,
80,5152,3618,2081,3677,6753,10398,15006,32,7710,1695,7134,10145,15712,8289,
81,5216,3426,2017,3741,7009,9822,15198,32,7710,1759,7646,10273,15584,7713,
82,5280,3810,2017,3549,6689,10206,15710,32,7838,2335,8414,10209,15392,7905,
83,5344,4130,2017,3485,7137,10718,15390,32,7902,2079,7902,10337,15776,8097,
84,5408,3938,1761,3677,7073,10590,15198,32,7710,1183,7198,10593,15968,7969,
85,5472,3810,1633,3229,6561,10398,15646,32,7710,1439,7646,10273,15712,7969,
86,5536,3810,2017,3101,6689,10590,15646,32,7966,2015,8158,10209,15712,8161,
87,5600,3490,2273,3613,6817,10654,15390,32,8030,1439,7774,10849,15840,8033,
88,5664,3362,1825,3549,6689,10654,15518,32,7838,1375,6942,10721,15648,7841,
89,5728,3810,1441,3101,6753,10654,15710,32,7774,2079,7198,10337,15712,7905,
90,5792,3810,1889,3357,6753,10462,15390,32,7774,1951,7902,10529,15840,7969,
91,5856,3554,2209,3741,6881,10270,15134,32,7774,1567,7966,10657,15712,7969,
92,5920,3746,1761,3741,7329,10590,15518,32,7902,1695,7902,10401,15648,8033,
93,5984,3746,1697,3293,6881,10910,15902,32,8030,1823,7646,10209,15648,8289,
94,6048,3554,1953,2909,6369,10590,15582,32,7966,2143,7134,10209,15712,8289,
95,6112,3746,1825,3229,6625,10398,15262,32,7838,2399,7134,10337,15904,8033,
96,6176,3810,1697,3677,6689,10590,15582,32,7774,2015,7454,10337,16224,8097,
97,6240,3810,1953,3421,6753,10462,15646,32,7902,1695,7390,10209,16160,8289,
98,6304,3746,1953,3165,6945,10206,15582,32,7838,2079,7390,10209,15776,8161,
99,6368,3682,1761,3549,6753,10462,15454,32,7646,2399,7390,10145,15584,7777,
100,6432,3682,1825,3613,6369,10846,15262,32,7838,2207,7262,10337,15584,7777,
101,6496,3874,1953,3485,6497,10782,15390,32,7966,1823,7838,10529,15584,8161,
102,6560,3810,1761,3485,7009,10398,15710,32,7774,1567,8286,10145,15776,8353,
103,6624,3746,1441,3613,7137,10526,15710,32,7582,1503,7710,9889,15904,8225,
104,6688,3746,1441,3485,6689,10654,15198,32,7774,1631,7582,10465,15584,8161,
105,6752,3746,1761,3421,6497,10270,15134,32,7838,1823,8286,10593,15520,8353,
106,6816,3810,1825,3421,7009,10014,15454,32,7902,1951,8222,10337,15968,8289,
107,6880,3810,1825,3293,7137,10270,15454,32,7902,1887,7582,10465,16096,8289,
108,6944,3810,1953,3229,6625,10526,15454,32,7838,2015,7646,10657,15840,8161,
109,7008,3810,2017,3293,6497,10270,15454,32,7838,1887,7966,10081,16032,7905,
110,7072,3810,1825,3613,6881,10142,15326,32,7838,1695,7518,9825,16288,8033,
111,7136,3874,1825,3805,6753,10206,15262,32,7838,1887,7582,10337,16032,8225,
112,7200,3874,1953,3549,6753,10334,15390,32,7774,2015,8350,10273,15904,8161,
113,7264,3810,2017,3357,7137,10462,15454,32,7838,1759,8222,9953,15904,8417,
114,7328,3618,1761,3485,6945,10334,15390,32,7838,1631,7646,10145,15648,8353,
115,7392,3682,1633,3229,6433,10270,15262,32,7774,2015,7646,10529,15648,7713,
116,7456,3810,2081,3229,6625,10718,15198,32,7902,1887,7774,10337,15712,7777,
117,7520,3874,2145,3613,7201,10974,15454,32,7966,1567,8030,10209,15712,8289,
118,7584,3810,2017,3613,7201,10654,15582,32,7774,1759,7966,10401,15968,7969,
119,7648,3682,1889,3613,7009,10270,15518,32,7710,2079,7454,10273,16032,7841,
120,7712,3618,1697,3677,6945,10142,15262,32,7838,2207,7326,10081,15584,8225,
121,7776,3682,1697,3357,6689,10078,15262,32,7902,2015,7518,10465,15520,8097,
122,7840,3874,2017,3165,6689,10462,15582,32,7838,1887,7646,10465,15648,7841,
123,7904,3746,1889,3549,6881,10270,15454,32,7774,2015,7262,10209,15712,8161,
124,7968,3490,1697,3933,6817,9950,15326,32,8030,1759,7198,10273,15968,8545,
125,8032,3746,2337,3677,6945,10270,15838,32,8094,1375,7902,10465,16096,8289,
126,8096,4066,2145,3293,7073,10398,16030,32,7838,1823,7902,10337,15904,7841,
127,8160,3490,1313,3485,7201,9822,15454,32,7582,2399,6942,10081,15712,8161,
239,15328,3106,1569,3869,6945,10078,15390,32,7774,2271,7326,10081,15776,8545,
0,32,3746,2209,3549,6689,10846,15454,32,7774,1759,8798,10017,15968,8225,
1,96,4130,1825,3165,6817,10462,15070,32,7646,1695,8158,9825,15968,8225,
2,160,3618,1633,3229,6881,9886,15134,32,7774,1951,7006,10017,15520,8225,
3,224,3426,1825,3549,6369,10142,15134,32,7902,2079,7582,10721,15392,8033,
4,288,3810,1569,3421,6497,10526,15070,32,7966,1887,8158,10529,15776,8097,
5,352,3810,1377,3165,7201,10654,15134,32,7966,1631,7838,10017,15776,8097,
6,416,3810,1569,3421,6945,10654,15006,32,7902,1823,7838,10337,15584,7969,
7,480,3874,1889,3549,6497,10654,15198,32,7902,1759,7646,10593,15776,8289,
8,544,3810,2081,3165,6753,10590,15582,32,7902,1567,7006,10209,15776,8417,
9,608,3874,1825,3421,6881,10526,15454,32,7774,1759,7326,10401,15648,8033,
10,672,3874,1569,3805,6817,10334,15262,32,7838,2015,7518,10657,15648,7969,
11,736,3682,1633,3229,6689,10078,15518,32,7966,1951,7070,10337,15648,8289,
12,800,3746,1761,2973,6689,10270,15518,32,7902,1631,7454,10209,15584,8481,
13,864,3746,1825,3741,6689,10654,15198,32,7774,1439,8158,10337,15840,8289,
14,928,3490,2081,3933,6753,10526,15198,32,7838,1503,8094,10401,15968,8161,
15,992,3426,2145,3613,6881,10398,15518,32,7902,1631,7454,10273,15904,8353,
16,1056,3618,2017,3293,6689,10654,15518,32,7838,1823,7390,10337,15840,8289,
17,1120,3746,1953,3421,6625,10718,15134,32,7774,1759,7518,10465,15776,8033,
18,1184,3810,2017,3485,7137,10462,15262,32,7710,1759,8094,10465,15648,8289,
19,1248,3874,1825,3485,7201,10526,15582,32,7710,1823,8350,10273,15584,8289,
20,1312,3746,1505,3613,6689,10910,15262,32,7838,1823,7966,10337,15648,7777,
21,1376,3874,1953,3549,6561,10910,15198,32,7838,1759,7838,10337,15648,7905,
22,1440,4194,2209,3229,6881,10526,15710,32,7902,1887,7518,10337,16096,8417,
23,1504,4130,1761,3229,6945,10526,15710,32,7966,1759,7006,10273,16160,8481,
24,1568,3810,1697,3613,6561,10462,15646,32,7902,1631,7262,10465,15904,8097,
25,1632,3874,1761,3741,6497,10014,15966,32,7774,2143,7838,10529,15968,7969,
26,1696,3938,1633,3613,6945,9694,15710,32,7710,2335,7902,10529,16096,8353,
27,1760,3682,1825,3613,7201,10142,15198,32,7710,1951,7710,10337,15840,8673,
28,1824,3618,2017,3613,6881,10590,15390,32,7838,1887,7646,10145,15776,8097,
29,1888,3810,2017,3549,6689,10270,15390,32,7902,1887,7966,10401,15776,7713,
30,1952,3810,1953,3549,6945,10078,15198,32,7838,1503,8414,10337,15776,7969,
31,2016,3746,1761,3485,7009,10270,15454,32,7838,1503,7774,10209,16160,8033,
32,2080,3554,1889,3485,6881,10206,15710,32,7902,1759,7454,10273,16032,7905,
33,2144,3618,2081,3421,6689,10078,15582,32,7902,1887,7838,10273,15520,7969,
34,2208,3490,1441,3421,6817,10526,15646,32,7902,1759,7326,10337,15712,8161,
35,2272,3170,1377,3549,6817,10654,15582,32,7902,1759,7390,10721,16160,8289,
36,2336,3554,2145,3677,6689,9886,15390,32,7838,1951,8222,10721,15904,8289,
37,2400,4130,2145,3549,7009,9950,15518,32,7710,2079,7710,10401,15712,8225,
38,2464,3682,1761,3165,7201,10846,15454,32,7646,1759,6878,10529,15776,8225,
39,2528,3362,1761,3165,6881,10590,15134,32,7774,1631,7070,10849,15712,8161,
40,2592,3874,1825,3485,6561,9822,15390,32,7774,1823,7006,10593,15584,8097,
41,2656,3938,1825,3549,6561,10142,15582,32,7710,1759,7262,10465,15776,8353,
42,2720,3810,1825,3549,6753,10334,15454,32,7774,1887,8094,10465,15712,8481,
43,2784,3874,1825,3741,6817,10014,15454,32,7838,1951,8030,10401,15840,8353,
44,2848,3746,1825,3805,6689,10526,15518,32,7902,1503,7262,10401,15904,8289,
45,2912,3874,1889,3741,6945,10910,15454,32,7838,1631,7006,10401,15840,8225,
46,2976,4002,2081,3741,7137,10334,15262,32,7838,2143,6878,10401,15904,8353,
47,3040,3682,1825,3549,6689,10270,15262,32,7966,2015,7262,10401,15904,8225,
48,3104,3554,1633,3421,6497,10654,15518,32,7966,1503,7646,10593,15776,7841,
49,3168,3810,2017,3421,6753,10334,15518,32,7774,1311,7198,10401,15584,7777,
50,3232,3746,2017,3293,6561,9950,15262,32,7774,1567,7198,10401,15456,8161,
51,3296,3618,1825,3613,6625,10334,15454,32,7774,1759,7966,10657,15520,8097,
52,3360,3810,1825,3677,7073,10590,15582,32,7774,1951,7710,10465,15840,8289,
53,3424,3938,1633,3293,6817,10206,15006,32,7966,2143,6814,10401,15776,8417,
54,3488,3682,1377,3293,6881,9950,14942,32,7966,2271,7198,10593,15648,7841,
55,3552,3746,1569,3741,7201,10270,15454,32,7838,1887,8158,10465,15712,7777,
56,3616,4130,1697,3677,6561,10462,15454,32,7838,1695,8094,10273,15584,7969,
57,3680,4130,1825,3613,6241,10270,15454,32,7838,1951,7006,10145,15456,7841,
58,3744,3746,1953,3677,6881,10270,15582,32,7710,1823,6686,10209,15776,8097,
59,3808,3682,1889,3485,7009,10334,15390,32,7838,1695,7774,10273,15840,8481,
60,3872,3810,1825,3485,6433,10334,15326,32,7902,1951,8222,10465,15712,8097,
61,3936,3746,1697,3293,6497,10206,15646,32,7902,1823,7774,10465,15776,7841,
62,4000,3810,1633,3101,6881,10142,15518,32,8094,1695,7710,10337,15968,8225,
63,4064,3810,1825,3293,7073,10398,15262,32,8030,1887,7966,10529,15840,8033,
64,4128,3682,1761,3613,6689,10654,15518,32,7774,1759,7902,10785,15648,7777,
65,4192,3682,1761,3613,6497,10270,15646,32,7774,1503,7966,10657,15840,8161,
66,4256,3810,2081,3293,6561,9822,15518,32,7902,1823,8094,10209,15968,8225,
67,4320,3874,2145,3037,6689,10206,15454,32,7710,1695,7838,10017,15712,7841,
68,4384,3746,2017,3229,6753,10782,15454,32,7710,1567,7646,10273,15584,7777,
69,4448,3618,2017,3485,6689,10526,15390,32,7774,2079,7646,10593,15776,8033,
70,4512,3682,2081,3677,6625,9950,15454,32,7710,1887,8094,10529,15712,8225,
71,4576,3874,1889,3613,6689,10270,15518,32,7838,1567,8222,10401,15648,7969,
72,4640,3810,1953,3549,6753,10590,15518,32,8030,2207,7390,10337,15648,7969,
73,4704,3746,1953,3677,6817,10206,15518,32,7966,2335,7070,10209,15776,8353,
74,4768,3810,1697,3741,6817,10206,15198,32,7710,1695,7966,10337,15904,8417,
75,4832,3810,1569,3421,6497,10654,15006,32,7774,1823,8286,10593,15776,8225,
76,4896,3810,1889,3357,6305,10718,15454,32,7902,2271,7838,10337,15776,8225,
77,4960,3810,2145,3613,6625,10270,15774,32,7774,1823,7518,10209,15776,8417,
78,5024,3746,1761,3485,6625,10206,15582,32,7774,1631,7070,10337,15712,8353,
79,5088,3618,1441,3357,6817,10526,15390,32,7902,2015,6878,10401,15776,7905,
80,5152,3682,1825,3613,7073,10718,15454,32,7902,2015,7070,10657,15840,7905,
81,5216,3682,2081,3677,6817,10526,15582,32,7774,1759,7198,10785,15648,8033,
82,5280,3490,1761,3549,6625,10334,15582,32,7774,1887,7262,10465,15584,7585,
83,5344,3682,1569,3549,6753,10654,15454,32,7838,2015,7454,10337,15776,7649,
84,5408,4002,1889,3549,6625,10654,15582,32,7710,1695,7198,10529,15776,8737,
85,5472,3810,2017,3613,6561,10398,15582,32,7838,1695,7262,10337,15648,8481,
86,5536,3618,1953,3805,7009,10206,15198,32,7966,2079,7518,10209,15840,7713,
87,5600,3746,1889,3805,7073,10334,15134,32,7902,1823,7582,10337,15712,8161,
88,5664,3746,1889,3613,6497,10462,15390,32,7838,1695,7582,10465,15584,7969,
89,5728,3810,1953,3741,6305,10654,15518,32,7774,1695,7134,10145,15584,7457,
90,5792,3874,1761,3933,6497,10846,15454,32,7582,1567,7070,10145,15712,8097,
91,5856,3810,1569,3741,6689,10526,15390,32,7710,1951,8158,10401,15712,8417,
92,5920,3682,1825,3485,7073,9950,15390,32,7838,2463,8606,10593,15648,8033,
93,5984,3746,1889,3549,7073,10206,15454,32,7710,2143,8222,10465,15712,8225,
94,6048,3938,1505,3677,6881,10590,15582,32,7774,1567,8286,10465,15840,8737,
95,6112,3874,1377,3549,7137,10078,15518,32,8030,1759,8350,10593,15968,8417,
96,6176,3682,1505,3485,6945,10014,15390,32,7902,1951,7710,10337,15712,7969,
97,6240,3810,1249,3613,6305,10654,15262,32,7838,1951,7070,10145,15648,8225,
98,6304,4002,1441,3805,6497,10462,15390,32,7966,1759,7198,10337,15904,8481,
99,6368,3746,1825,3677,6817,10078,15582,32,8030,1695,7326,10529,15904,8097,
100,6432,3618,1569,3613,6689,10590,15518,32,7774,1695,7134,10337,15712,8225,
101,6496,3938,1441,3805,7073,10974,15326,32,7774,1631,7006,10209,15904,8673,
102,6560,3810,2017,3677,7137,10654,15262,32,7966,1695,7390,10273,16032,8097,
103,6624,3554,1953,3357,6689,10462,15134,32,7838,1823,7454,10465,15776,7777,
104,6688,3810,1697,3293,6753,10526,15070,32,7838,1951,7070,10785,15648,8225,
105,6752,3682,2081,3229,6689,10526,15134,32,7966,2079,7518,10721,15904,8161,
106,6816,3618,1889,3229,6433,10718,15454,32,7902,2015,8158,10593,15776,7841,
107,6880,4130,1313,3613,6817,10654,15710,32,7774,1887,8158,10849,15648,8161,
108,6944,4322,1825,3613,7201,10334,15518,32,7774,1823,7774,10593,15648,8225,
109,7008,3746,2209,3293,7137,10526,15454,32,7838,1823,7518,10209,15840,7969,
110,7072,3618,1825,3357,7009,10526,15774,32,7774,1695,8158,10337,15968,8225,
111,7136,3874,1505,3421,6881,10142,15710,32,7774,1695,8350,10401,15904,8225,
112,7200,3618,1633,3357,6625,10142,15134,32,7774,1823,7454,10017,15904,7649,
113,7264,3554,1825,3421,6625,10334,15198,32,7902,1887,6814,10145,15968,7585,
114,7328,3938,1825,3613,6945,10270,15518,32,7902,1695,7006,10657,16032,8161,
115,7392,3874,1697,3677,6817,10590,15198,32,7710,1631,7326,10465,15840,8225,
116,7456,3490,1761,3741,6561,10846,15262,32,7710,1567,7518,10401,15648,7905,
117,7520,3618,2017,3613,6689,10590,15518,32,7902,1247,7326,10593,15648,7905,
118,7584,3938,2017,3485,6817,10270,15454,32,7838,1503,7134,10401,15776,8545,
119,7648,3810,2081,3549,6689,10206,15518,32,7774,1887,7966,10273,15712,8673,
120,7712,3746,2017,3549,6881,10590,15454,32,7774,1823,8350,10401,15712,7777,
121,7776,3746,1825,3549,7073,10782,15198,32,7774,1695,6942,10465,15904,7521,
122,7840,3554,1825,3549,6625,10462,15070,32,7774,1887,6750,10401,16160,8161,
123,7904,3490,1697,3485,6561,10334,15198,32,7710,2207,8350,10401,16096,8289,
124,7968,3682,1505,3613,6753,10206,15198,32,7710,2271,8670,10209,15840,7713,
125,8032,3938,1569,3805,6561,10014,15070,32,7710,1887,8094,10209,15840,7841,
126,8096,3874,1697,3549,6625,10142,15134,32,7774,1567,8158,10529,15904,8097,
127,8160,3810,1761,3485,6881,10206,15454,32,7774,1887,8670,10593,15584,7969,
239,15328,3874,2017,3741,6753,10142,15710,32,7838,1823,8286,10593,15584,8353,
0,32,3682,1953,3741,6753,10398,15518,32,7838,1439,8094,10849,15968,8545,
1,96,3618,2017,3357,6817,10718,15326,32,7838,1439,8542,10977,15904,8225,
2,160,3874,2145,3165,6625,10526,15326,32,7838,1631,7838,10849,15904,8097,
3,224,4002,1505,3357,6817,10654,15582,32,7774,1631,6942,10657,15840,8161,
4,288,3938,929,3613,6817,10462,15646,32,7838,1695,7134,10593,15584,8033,
5,352,3618,1633,3613,6689,9886,15006,32,7966,1887,7262,10593,15520,8033,
6,416,3682,2209,3485,7009,10014,15070,32,7966,2015,7454,10849,15712,7969,
7,480,3746,1825,3613,7201,10782,15774,32,7838,2015,8286,10657,15648,7969,
8,544,3234,1697,3357,7009,10846,15454,32,7838,1823,7774,10337,15648,8417,
9,608,3362,2145,3165,7009,10526,15006,32,7966,1631,7070,10465,15904,8417,
10,672,4002,1889,3613,7201,10462,15518,32,7902,1567,8030,10401,15968,8161,
11,736,3938,1697,3741,7137,10846,15454,32,7838,2079,7774,10209,15840,8417,
12,800,3490,1889,3485,6689,11102,15134,32,7838,2399,6942,10593,15776,8609,
13,864,3810,1889,3485,6369,10526,15390,32,7838,2015,7646,10785,15712,8289,
14,928,4002,1825,3549,6497,9950,15262,32,7838,1695,8286,10209,15584,8225,
15,992,3810,1825,3421,6753,10206,15070,32,7838,1951,7518,10081,15584,8417,
16,1056,3938,1569,3293,6817,10462,15390,32,7838,2143,7326,10593,15712,8417,
17,1120,3938,1441,3229,6561,10334,15326,32,7710,1695,7582,10529,15840,8481,
18,1184,3490,1825,3293,6689,10334,15198,32,7710,1375,7262,10273,15968,8545,
19,1248,3426,1889,3229,7265,10334,15390,32,7838,1823,7134,10401,16032,8545,
20,1312,3874,1441,3229,7073,10590,15198,32,7710,2399,7070,10465,15904,8161,
21,1376,3810,1377,3485,6433,10654,15390,32,7710,1951,7326,10273,15968,8033,
22,1440,3618,1889,3485,6625,10206,15646,32,7838,1503,8478,10273,15968,8033,
23,1504,4066,2017,3165,6817,10398,15198,32,8030,1759,8286,10401,15776,8161,
24,1568,4258,1761,3421,6625,10846,15070,32,7838,1503,7006,10273,15584,8161,
25,1632,3938,1889,3613,6881,10526,15582,32,7710,1247,7134,10401,15776,7905,
26,1696,3746,2017,3485,7073,10334,15710,32,7966,1823,7710,10593,15968,8033,
27,1760,4066,1633,3485,6881,10462,15454,32,8030,2207,7070,10465,15904,8225,
28,1824,4258,1697,3357,6945,10462,15518,32,7902,1887,6942,10465,15840,8097,
29,1888,3938,2081,3357,7009,10398,15454,32,7902,1695,7582,10657,15840,8161,
30,1952,3746,2145,3613,6753,10270,15198,32,7838,1759,7326,10337,15840,8545,
31,2016,3874,2017,3549,6689,10014,15390,32,7710,1503,7198,10273,15904,8161,
32,2080,3746,1889,3293,6945,10014,15454,32,7838,1311,7326,10657,15712,7905,
33,2144,3682,1825,3357,7009,10014,15518,32,7838,1439,7262,10785,15648,8033,
34,2208,3874,1633,3357,6753,10206,15710,32,7774,1503,7134,10721,15904,7713,
35,2272,3874,1825,3293,6689,10590,15646,32,8030,1631,7134,10529,15712,7585,
36,2336,3810,1953,3677,7073,10718,15518,32,7902,1823,7326,10401,15648,8353,
37,2400,3810,1633,3997,6881,10654,15582,32,7710,1695,7134,10273,15840,8353,
38,2464,3810,1569,3677,6625,10718,15646,32,8094,1695,7390,10337,15968,7585,
39,2528,3810,2017,3357,6753,10526,15582,32,8094,2015,8094,10273,15776,7649,
40,2592,3746,2145,3421,6625,10398,15582,32,7646,2015,7710,10209,15840,8289,
41,2656,3682,1889,3549,6625,10590,15454,32,7710,1823,6622,10273,15840,8353,
42,2720,3810,1633,3485,6689,10462,15198,32,7966,1759,7198,10145,15520,7969,
43,2784,3682,1697,3677,6625,10206,15326,32,7966,1631,8606,10273,15648,8033,
44,2848,3618,2017,3805,6561,10334,15646,32,7966,1567,7774,10529,15904,8289,
45,2912,3682,1889,3805,6689,10590,15646,32,7838,1951,6494,10465,15904,8225,
46,2976,3426,1505,3677,6561,10270,15454,32,7710,2079,7134,10145,15712,8097,
47,3040,3362,1825,3357,6561,9822,15710,32,7774,1823,7774,10081,15712,8289,
48,3104,3362,2017,3357,6625,9822,15710,32,7838,1823,7390,10401,15712,8225,
49,3168,3426,1953,3805,6433,10334,15262,32,7838,1823,7198,10657,15712,7777,
50,3232,3618,1953,3869,6689,10654,15198,32,7774,1951,7326,10465,15840,7585,
51,3296,3810,1953,3421,6817,10398,15518,32,7710,1887,7006,10145,15904,7777,
52,3360,3618,2017,3421,6625,10334,15774,32,7582,1503,6942,10145,15968,8289,
53,3424,3362,1953,3549,6881,10782,15710,32,7710,1439,7774,10337,15840,8225,
54,3488,3490,1697,3357,7009,10910,15710,32,7710,1631,8094,10145,15648,8033,
55,3552,3618,1697,3165,6625,10654,15710,32,7838,1631,7838,10081,15712,8225,
56,3616,3874,1953,3421,6561,10590,15710,32,7966,1503,7966,10273,15584,8481,
57,3680,3746,2017,3869,6753,10526,15454,32,7902,1887,7710,10401,15520,8545,
58,3744,3490,1889,3805,6625,10206,15198,32,7646,2271,6878,10401,15712,8609,
59,3808,3618,1825,3677,6945,10142,15454,32,7710,2143,7070,10337,15712,8289,
60,3872,3938,1825,3805,7265,10206,15646,32,8030,2143,8030,9889,15520,7713,
61,3936,3618,1633,3613,6881,10270,15390,32,8030,2079,8030,9889,15712,8033,
62,4000,3426,1633,3357,6625,10526,15070,32,7774,2143,7774,10529,15904,8417,
63,4064,3810,2081,3357,6881,10782,15198,32,7646,2015,8158,10657,15712,8097,
64,4128,4002,1889,3549,6817,10398,15518,32,7838,1887,8350,10273,15712,8161,
65,4192,3874,1441,3421,6881,9950,15582,32,7838,1951,7518,10081,15648,8097,
66,4256,3810,1633,3293,7137,10334,15646,32,7838,2079,7390,10273,15584,7649,
67,4320,3746,1889,3485,6753,10590,15518,32,8030,1951,8606,10465,15904,7713,
68,4384,3746,1569,3677,6369,10334,15262,32,8158,1695,8350,10337,16096,8289,
69,4448,3874,1697,3613,6497,10462,15454,32,7966,1823,6622,10273,15776,8097,
70,4512,3810,2017,3613,6689,10462,15582,32,7838,1951,6878,10657,15712,7841,
71,4576,3810,1761,3677,6625,10398,15262,32,7902,1759,8350,10593,15904,8225,
72,4640,3938,1697,3485,6561,10654,15390,32,7902,1695,8094,10209,15968,8225,
73,4704,3746,1953,3421,6625,10526,15582,32,7710,1887,7006,10337,15712,8225,
74,4768,3746,1889,3677,6625,9886,15454,32,7710,1887,7198,10401,15584,8289,
75,4832,4002,1889,3613,6689,10270,15582,32,7966,1695,8606,10081,15840,8033,
76,4896,3874,1761,3485,6817,10846,15710,32,7902,1823,8862,10273,15776,8161,
77,4960,3618,1633,3549,6753,10270,15390,32,7582,1887,7582,10529,15584,8545,
78,5024,3682,1953,3421,6753,9822,15326,32,7582,1823,7326,10465,15712,8417,
79,5088,3810,2017,3293,7329,10078,15710,32,7710,1759,7582,10401,15968,7905,
80,5152,3746,1505,3165,7521,10270,15710,32,7646,1439,7390,10273,15776,8097,
81,5216,3810,1697,3229,6753,10206,15582,32,7646,1311,7390,10209,15584,8481,
82,5280,3938,2209,3229,6497,10014,15710,32,7774,1631,7326,10273,15776,8097,
83,5344,3874,2401,3165,6881,10014,15710,32,7774,1823,6814,10209,15840,8097,
84,5408,3810,2145,3357,6945,10270,15390,32,7774,1887,6750,10273,15648,7969,
85,5472,3810,1953,3741,6561,10590,15582,32,7966,1887,7710,10785,15776,7713,
86,5536,3874,2017,3485,6497,10526,15774,32,8030,1823,8158,10721,16032,7969,
87,5600,3874,1889,3293,6881,10270,15134,32,7710,1759,8094,10081,15840,7969,
88,5664,3746,1441,3421,6945,10462,14814,32,7518,1695,7774,9825,15584,7521,
89,5728,3746,1185,2973,6561,10782,15326,32,7646,1695,7710,10273,15648,7841,
90,5792,3746,1761,3037,6497,10846,15518,32,7710,1759,8222,10465,15520,8353,
91,5856,3618,2145,3805,6753,10590,15390,32,7582,1759,8350,10273,15520,8161,
92,5920,3682,1633,3677,6945,10654,15582,32,7710,2015,7390,10081,15840,8097,
93,5984,3682,1313,3037,6753,10974,15646,32,7774,2079,6622,10209,15904,8417,
94,6048,3618,1697,3357,6497,10846,15518,32,7710,1759,7198,10465,15584,8289,
95,6112,3746,1889,3741,6753,10462,15326,32,7710,1567,7518,10337,15712,8417,
96,6176,3874,1697,3613,7137,10526,15326,32,7902,1759,7070,10081,16032,8545,
97,6240,3874,1825,3293,6881,10590,15518,32,7966,1951,7134,10401,15968,8097,
98,6304,3874,2081,3357,6625,10334,15646,32,7774,2079,7198,10785,15712,7777,
99,6368,3618,2017,3741,6753,10206,15518,32,7774,1695,7326,10593,15712,8225,
100,6432,3298,1953,3549,6689,10398,15582,32,7838,1183,7454,10273,16032,8545,
101,6496,3554,1889,3293,6689,10270,15198,32,7774,1439,7262,10337,15968,8225,
102,6560,3810,2145,3613,6753,10078,15006,32,7774,2015,7518,10337,15904,8225,
103,6624,3810,2081,3677,6753,10270,15710,32,7838,2079,7966,10081,15904,8225,
104,6688,3874,1569,3293,6625,10590,16030,32,7838,1823,7710,10273,15968,7905,
105,6752,3874,1633,3357,6561,10846,15518,32,7774,1695,7710,10593,15648,7905,
106,6816,3682,1889,3613,6497,10590,15390,32,7838,1823,8030,10593,15776,8481,
107,6880,3682,1697,3485,6689,10462,15582,32,7966,2079,7262,10209,16032,8417,
108,6944,3874,1761,3613,6689,10526,15518,32,7902,2015,6814,9953,15776,7969,
109,7008,4002,1825,3677,6689,10334,15454,32,7710,1695,7710,10209,15648,8097,
110,7072,4130,1697,3357,7009,10142,15454,32,7582,1695,7838,10529,16032,8097,
111,7136,4130,1825,3101,7137,10526,15582,32,7646,1759,7134,10465,15968,7905,
112,7200,3810,2209,3165,6753,10718,15646,32,7966,1375,7326,10209,15648,8225,
113,7264,3746,1953,3485,6625,10334,15198,32,7966,1375,8094,10401,15712,8609,
114,7328,3810,1569,3741,7009,10270,14878,32,7774,1887,8094,10465,15840,8289,
115,7392,3746,1889,3613,7201,10654,15390,32,7774,2207,7902,10401,15712,7905,
116,7456,3938,2209,3421,6881,10718,15582,32,7966,1951,7646,10273,15648,7969,
117,7520,4002,1889,3613,6625,10526,15070,32,7966,1887,7454,10273,15776,8545,
118,7584,3746,1761,3805,6753,10590,15326,32,7710,2271,7326,10401,15968,8481,
119,7648,3874,1953,3485,6753,10334,15774,32,7710,2143,7838,10529,15776,7713,
120,7712,3938,1889,3421,6561,10078,15390,32,7966,1503,8222,10529,15456,7777,
121,7776,3682,1761,3613,6689,10526,15262,32,7838,1439,8030,10401,15584,8289,
122,7840,3618,1697,3421,6753,10846,15646,32,7582,2015,8158,10273,15776,8225,
123,7904,3618,1761,3165,6689,10270,15518,32,7902,1887,8286,10529,15840,8097,
124,7968,3618,2017,3549,6945,10206,15390,32,8222,1695,7902,10401,15840,8161,
125,8032,3874,2081,3741,7329,10718,15646,32,7902,1887,7710,10081,15968,8161,
126,8096,3810,1761,3357,7009,10654,15582,32,7774,1887,8158,10209,15840,8289,
127,8160,3618,1505,3165,6625,10590,15262,32,8030,1887,7774,10337,15648,7969,
239,15328,3874,1825,3421,6689,10718,15198,32,7902,1631,7070,10273,15776,7713,
0,32,3938,2017,3677,6817,10526,15326,32,7710,1375,7582,10593,16032,7969,
1,96,3810,1825,3677,6625,10334,15582,32,7774,1567,7518,10593,15840,7905,
2,160,3874,1889,3293,6561,10462,15646,32,7902,1887,7262,10273,15584,8097,
3,224,3810,2081,3229,6689,10526,15582,32,7838,1951,7454,10401,15712,8417,
4,288,3746,1953,3613,6689,10462,15518,32,7838,1823,6878,10721,15648,8097,
5,352,3874,1889,3613,6689,10462,15454,32,7774,1951,7006,10657,15584,8161,
6,416,3874,1953,3293,6753,10206,15454,32,7774,2399,8222,10273,15968,8545,
7,480,3874,2017,3293,7073,10142,15518,32,7774,2719,8542,10209,16096,7713,
8,544,3682,1953,3357,7201,10462,15518,32,7774,2015,8030,10081,15648,7585,
9,608,3618,1697,3357,6625,10462,15518,32,7838,1631,8094,10145,15648,8673,
10,672,3874,1761,3421,6433,10462,15454,32,7966,2143,8414,10401,15776,8545,
11,736,3938,2273,3421,7009,10590,15518,32,7966,2335,8286,10785,15904,7841,
12,800,3746,2145,3293,7201,10398,15518,32,8030,1951,7454,10529,15776,8097,
13,864,3810,1441,3293,7009,10142,15326,32,7966,2015,6878,10145,15712,8225,
14,928,4130,1377,3421,6945,9950,15262,32,7518,2207,8222,10401,15776,7905,
15,992,3874,1697,3485,6625,10014,15454,32,7518,1759,8734,10401,15904,8417,
16,1056,3746,1825,3485,6433,10334,15518,32,7774,1631,7070,10081,15904,8545,
17,1120,3874,1825,3549,6753,10398,15390,32,7646,2207,7006,10273,15904,8097,
18,1184,3874,1761,3613,6753,10526,15326,32,7582,2079,7774,10465,16160,8289,
19,1248,4002,1825,3613,6817,10974,15326,32,7838,1439,7518,9953,16096,8097,
20,1312,4130,1953,3677,7201,10846,15518,32,7966,1439,7582,10081,15712,7713,
21,1376,3938,2145,3805,7009,10526,15646,32,8094,1695,8350,10593,15648,8097,
22,1440,3746,1825,3741,6625,10654,15390,32,8030,1567,8222,10529,15840,8097,
23,1504,4002,1953,3485,7009,10718,15262,32,7646,1503,7454,10401,15840,7457,
24,1568,4258,2017,3421,6945,10270,15262,32,7710,1823,7646,10657,15648,7649,
25,1632,3874,1825,3677,6561,10398,15198,32,7902,1951,8350,10785,15904,8033,
26,1696,3682,1889,3677,6881,10782,15134,32,7902,1887,8030,10593,16288,7969,
27,1760,3810,2209,3421,7201,10654,15262,32,7838,1887,7774,10401,16032,7905,
28,1824,3938,1825,3485,6881,10078,15582,32,7646,2015,8222,10465,15776,7969,
29,1888,3746,1377,3677,6753,10142,15646,32,7774,1823,7518,10465,15904,8097,
30,1952,3810,1761,3613,6817,10462,15390,32,8094,1759,6686,10529,15840,8097,
31,2016,3938,2081,3485,6817,10206,15582,32,7902,1951,7902,10721,15712,7841,
32,2080,3874,1825,3421,6817,10206,15646,32,7646,1823,8286,10593,15776,7777,
33,2144,3746,1889,3293,6817,10270,15198,32,7902,1823,7582,10337,15776,8161,
34,2208,3618,2145,3357,6753,9950,15390,32,7902,2079,8158,10529,15584,8097,
35,2272,3746,1825,3485,6689,10206,15774,32,7646,1951,8286,10657,15712,7585,
36,2336,3810,1569,3485,6753,10654,15646,32,7710,1695,7390,10273,15776,7841,
37,2400,3682,1761,3485,6689,10590,15454,32,7838,1951,7902,10337,15776,8545,
38,2464,3618,2145,3677,6881,10334,15646,32,7902,2143,8670,10401,15776,8609,
39,2528,3746,2081,3805,7009,10398,15518,32,7838,1759,8030,10209,15840,8161,
40,2592,3746,1633,3613,6945,10398,15390,32,7774,1503,7646,10209,15968,8097,
41,2656,3554,1633,3229,7073,10462,15454,32,7710,1823,7646,10465,16032,8353,
42,2720,3618,1953,3421,6945,10718,15454,32,7582,1951,7006,10337,15776,8417,
43,2784,3874,2081,3869,6497,10654,15326,32,7582,1823,6878,10209,15840,8161,
44,2848,3746,2081,3805,6561,10526,15390,32,7838,1887,8094,10401,16096,7905,
45,2912,3618,2081,3421,7265,10334,15582,32,7774,1951,8286,10401,16032,8097,
46,2976,3682,2081,3357,7265,10142,15518,32,7646,1759,6750,10273,15648,7969,
47,3040,3746,2209,3357,6689,10270,15390,32,8030,1759,6750,10209,15776,8097,
48,3104,3810,1825,3421,6433,10718,15390,32,8030,2015,8030,10209,15904,8417,
49,3168,3810,1185,3485,6817,10718,15518,32,7646,1823,7774,10273,15648,8225,
50,3232,3682,1633,3421,7201,10398,15454,32,7710,1695,7134,10465,15648,8033,
51,3296,3746,2465,3421,6817,10526,15454,32,7902,1887,7646,10401,15968,8225,
52,3360,3810,2081,3613,6625,10782,15326,32,7838,2079,7646,10273,16032,8417,
53,3424,3682,1633,3549,6625,10526,15326,32,7838,1695,7070,10529,15840,8289,
54,3488,3554,1889,3613,6689,10078,15390,32,7838,1567,7070,10529,15904,7905,
55,3552,3618,2081,3677,6625,10014,15390,32,7774,2015,7262,10209,15968,7969,
56,3616,3746,1825,3357,6497,10334,15390,32,7838,2271,7454,10337,15840,8417,
57,3680,3810,1761,3485,6561,10654,15518,32,8030,1631,7390,10465,15776,8353,
58,3744,3810,1825,3677,6689,10718,15582,32,7710,1119,7518,10145,15712,7969,
59,3808,3746,1825,3421,6753,10718,15454,32,7390,1567,7966,10209,15712,8033,
60,3872,3874,1825,3485,6881,10782,15390,32,7582,2079,8030,10465,15712,8481,
61,3936,3746,1889,3805,6945,10782,15518,32,7774,1823,7518,10465,15712,8481,
62,4000,3682,1825,3677,6689,10526,15582,32,7838,1375,7582,10337,15712,8161,
63,4064,3874,1825,3613,6625,10398,15710,32,7838,1567,7966,10273,15776,8097,
64,4128,3490,2017,3549,6625,10462,15582,32,7838,1887,7902,10529,15776,8033,
65,4192,2978,1889,3357,6689,10078,15454,32,7966,1695,7902,10721,15584,7841,
66,4256,3426,1761,3549,6753,10142,15710,32,8030,1887,7646,10657,15584,8033,
67,4320,4002,1825,3677,6753,10526,15582,32,7838,1951,7390,10337,15904,8289,
68,4384,3746,2081,3677,6689,10334,15262,32,7646,1375,7454,10209,16032,7841,
69,4448,3490,1889,3613,6881,10334,15390,32,7838,1631,8030,10465,15776,7841,
70,4512,3746,1569,3485,6817,10846,15582,32,8094,2143,8350,10721,15904,8033,
71,4576,3874,1761,3485,6433,10654,15454,32,7966,1823,8030,10465,15904,7841,
72,4640,3874,1825,3485,6497,10334,15518,32,7710,1887,7710,10337,15392,7713,
73,4704,3746,1441,3229,6625,10782,15710,32,7646,2335,7262,10913,15328,7713,
74,4768,4002,1505,3421,6753,10910,15454,32,7710,2015,7326,10785,15648,7969,
75,4832,4002,1953,3613,6881,10462,15262,32,7902,1567,7582,10145,15776,8417,
76,4896,3810,1761,3549,6881,10206,15454,32,7902,1567,7134,10209,15584,8417,
77,4960,3810,1569,3485,6433,10078,15582,32,7710,1567,7198,10465,15712,7969,
78,5024,3874,2017,3485,6369,10334,15518,32,7646,1503,7966,10337,15840,7841,
79,5088,4002,2081,3485,6817,10782,15454,32,7774,1631,7838,10337,15584,8289,
80,5152,4002,1953,3485,6945,10718,15518,32,7774,1823,6750,10337,15392,8417,
81,5216,3810,1889,3549,6625,10462,15582,32,7646,1887,7070,10273,15520,8097,
82,5280,3682,1825,3613,6369,10398,15454,32,7710,1759,7902,10401,15776,8033,
83,5344,3874,1697,3677,6561,10334,15326,32,7838,1951,8094,10401,15712,8097,
84,5408,3874,1889,3549,6753,10206,15518,32,7838,2079,7774,10273,15648,7521,
85,5472,3618,2081,3293,6689,10334,15390,32,7838,1759,7262,10337,15968,7265,
86,5536,3618,2145,3485,7009,10398,15198,32,7966,1567,7838,10337,15968,8161,
87,5600,3618,2081,3741,7137,10398,15454,32,7966,1695,8158,10401,15648,8417,
88,5664,3618,1953,3741,6689,10462,15326,32,7902,1823,7454,10593,15776,8097,
89,5728,3682,1825,3357,6625,10398,14878,32,8030,1759,7262,10465,15904,8097,
90,5792,3746,1825,3293,6881,10334,15134,32,8094,1695,7902,10401,15776,8097,
91,5856,3746,2017,3293,6689,10654,15454,32,8030,1759,8414,10401,15584,8097,
92,5920,3618,2081,3357,6561,10526,15198,32,7902,1823,8030,10273,15904,8289,
93,5984,3682,2017,3677,6753,10078,15262,32,7902,1631,7326,10209,15968,8289,
94,6048,3874,1889,3741,6497,10142,15390,32,7774,1503,7198,10145,15904,8417,
95,6112,3938,1889,3485,6497,10654,15198,32,7710,1887,7582,10145,15840,8481,
96,6176,3618,1825,3677,6753,10782,15262,32,7710,2079,7326,10209,15840,8225,
97,6240,3554,1953,4061,6689,10526,15582,32,7838,1759,6942,10337,15776,8097,
98,6304,3874,2081,3613,6945,10654,15710,32,7838,1887,7646,10273,15776,8033,
99,6368,3938,1889,3101,7265,10590,15390,32,7838,2015,7646,10209,15904,8033,
100,6432,3938,1697,3357,6817,10334,15390,32,7838,1631,6942,10273,15776,8289,
101,6496,3874,1825,3677,6305,10334,15390,32,7902,1759,7390,10337,15712,8161,
102,6560,3810,1889,3549,6625,10398,15326,32,7774,2335,8158,10401,16032,7969,
103,6624,3874,1761,3485,6753,10078,15070,32,7838,2015,7902,10401,15968,8417,
104,6688,3874,1889,3549,6561,10334,15134,32,7838,1631,7774,10337,15776,8353,
105,6752,3810,1953,3485,6433,10846,15646,32,7710,1887,8094,10465,15840,7905,
106,6816,3938,1697,3357,6625,10334,15774,32,7774,1887,7582,10721,15840,8097,
107,6880,3874,1313,3229,7137,10014,15518,32,7774,1631,7518,10657,15712,8481,
108,6944,3618,1249,3421,7201,10718,15518,32,7710,1375,8350,10337,15648,8097,
109,7008,3682,1569,3549,7009,11038,15710,32,7774,1439,8094,10401,15712,7777,
110,7072,3874,1889,3485,7073,10526,15710,32,7902,1887,8094,10529,15840,8033,
111,7136,3938,1761,3293,6689,10462,15646,32,7902,2079,8478,10465,16032,7905,
112,7200,3874,1377,3165,6433,10718,15582,32,7838,1951,7646,10401,15904,7649,
113,7264,3682,1249,3421,6689,10654,15646,32,7774,2143,7006,10209,15648,8161,
114,7328,3618,1633,3741,6817,10270,15710,32,7838,2143,7262,10209,15648,8417,
115,7392,3810,1825,3357,6561,10270,15518,32,7838,1567,7454,10529,15968,8161,
116,7456,3874,1761,3101,6497,10590,15454,32,7774,1695,7198,10465,16160,8353,
117,7520,3810,1825,3677,6625,10590,15710,32,7710,2015,7198,10145,15968,8545,
118,7584,3810,2017,3869,6561,10398,15646,32,7838,1823,7582,10145,15776,8225,
119,7648,3874,1953,3421,6817,10462,15390,32,7902,1823,8350,10209,15840,8225,
120,7712,3874,1889,3293,7201,10462,15390,32,7646,1951,7966,10081,15840,8097,
121,7776,3682,1889,3485,7137,10590,15454,32,7710,1823,6942,10081,15520,7841,
122,7840,3938,1825,3421,6817,10782,15390,32,8030,1759,7710,10209,15648,7969,
123,7904,3874,1825,3485,7009,10718,15326,32,7966,2015,8478,10273,15840,7969,
124,7968,3362,2017,3421,7137,10462,15390,32,7774,2079,7966,10209,15776,8481,
125,8032,3618,1889,3357,6881,10078,15646,32,7838,2015,7646,10273,15840,8737,
126,8096,3682,1825,3869,6753,10014,15518,32,7902,1823,7966,10529,16032,7905,
127,8160,3298,2017,3869,6881,10462,15262,32,7902,1503,8286,10529,15904,7649,
239,15328,3554,2081,3229,6817,10590,15198,32,7902,1439,8222,10273,15840,8097,
0,32,4002,1761,3293,6625,9886,15390,32,7774,1759,7902,10145,15968,8033,
1,96,3682,1505,3869,6625,9950,15390,32,7774,1951,7710,10593,15712,8097,
2,160,3618,1889,3805,7009,10590,15262,32,7838,1759,8030,10721,15584,8417,
3,224,3746,2017,3421,6753,10590,15262,32,7838,1567,7966,10593,15712,8161,
4,288,3618,1569,3421,6497,10462,15518,32,7902,1695,7326,10657,15968,8033,
5,352,3810,1569,3549,6753,10526,15518,32,7966,1823,6878,10657,15968,8353,
6,416,4002,1889,3805,7073,10206,15198,32,7774,1887,7518,10273,15840,8161,
7,480,3938,1953,3549,6753,10270,15198,32,7646,1631,8734,10081,15648,8097,
8,544,3938,1697,3101,6369,10398,15454,32,7774,1567,8094,10273,15712,8225,
9,608,3938,1505,3421,6625,9950,15390,32,7710,1887,6750,10209,15904,8289,
10,672,4130,1377,3741,6817,10142,15454,32,7646,1887,7006,10209,15904,8417,
11,736,3874,1697,3421,6817,10654,15582,32,7902,1503,7710,10337,15904,8289,
12,800,3234,1825,3421,6881,10462,15198,32,8030,1567,7646,10209,16096,8481,
13,864,3234,1889,3677,7201,10462,15070,32,7838,2015,7582,10145,16096,8417,
14,928,3618,2145,3165,7393,10782,15582,32,7838,2143,7966,10273,15904,8033,
15,992,3682,1825,2909,7201,10526,15646,32,7966,1887,7838,10209,15712,8097,
16,1056,3682,1441,3165,6817,10142,15198,32,7966,1887,7774,10017,15776,7969,
17,1120,3810,1633,3293,6689,10206,15390,32,7774,2271,8030,10209,15904,7649,
18,1184,3746,1953,3229,6881,10270,15582,32,7774,2079,7710,10401,15904,8097,
19,1248,3810,1761,3101,6753,10526,15326,32,7902,1759,7262,10017,15840,8609,
20,1312,3746,1825,3357,6561,10718,15134,32,7902,1823,7582,10081,15776,8033,
21,1376,3490,1953,3741,6817,10398,14942,32,7774,1695,7838,10785,15712,7905,
22,1440,3554,1825,3485,6817,10078,15134,32,7646,1567,7198,10849,15584,8225,
23,1504,3618,1633,3293,6625,10398,15582,32,7710,1695,7390,10337,15712,7905,
24,1568,3874,1441,3805,6497,10654,15838,32,7966,1631,8094,10337,15968,7841,
25,1632,3874,1569,3805,6433,10526,15582,32,8030,1695,7966,10849,15904,8161,
26,1696,3874,2017,3293,6497,10078,15390,32,7774,1759,7582,10785,15712,8225,
27,1760,4066,1825,3357,6433,9950,15454,32,7902,1567,7902,10337,15840,7969,
28,1824,3810,1569,3549,6497,10270,15582,32,8094,1759,7966,10145,16032,7905,
29,1888,3618,1761,3293,7137,10334,15646,32,7966,2143,7390,10593,15904,8225,
30,1952,3874,1953,3229,7393,10142,15518,32,7774,2015,7518,10721,15712,8545,
31,2016,3938,2145,3613,6497,10462,15454,32,7710,1823,7710,10401,15776,7969,
32,2080,3618,1825,3741,6113,10846,15454,32,7838,1823,7070,10401,15840,7457,
33,2144,3874,1441,3293,6817,10654,15710,32,8030,1823,7198,10657,15648,7841,
34,2208,4002,1697,3421,6945,10590,15710,32,7902,1823,7838,10465,15648,8353,
35,2272,3682,1889,3613,6497,10654,15390,32,7710,1439,7326,10145,15904,7969,
36,2336,3618,1697,3357,6497,10206,15390,32,7774,1183,7454,10465,15904,7393,
37,2400,3746,1697,3357,6689,10014,15454,32,7902,1631,8286,10465,15904,7713,
38,2464,3746,2081,3421,6817,10398,15518,32,7966,1759,7902,10209,15968,8161,
39,2528,3746,2209,3485,6817,10398,15454,32,7966,1567,7646,10337,15776,8097,
40,2592,3810,1889,3485,6753,10142,14942,32,7902,1823,7710,10337,15968,7905,
41,2656,3810,1569,3357,6753,10462,14814,32,7966,2143,7198,10209,16032,8289,
42,2720,3810,1825,3421,6497,10462,15518,32,8158,1951,7710,10465,15776,8609,
43,2784,3874,2209,3741,6369,9950,15582,32,8094,1823,8286,10657,15648,8161,
44,2848,3810,1953,3421,6561,9950,15262,32,7902,1823,7838,10465,15968,7777,
45,2912,3746,1825,3293,6817,10654,15582,32,7646,1631,7902,10273,15904,7969,
46,2976,3874,2017,3613,7137,10718,15902,32,7646,1759,8350,10145,15520,8353,
47,3040,3810,1889,3613,7137,10270,15774,32,7838,2143,8030,10081,15584,8353,
48,3104,3746,1761,3549,6561,10462,15454,32,7838,1887,7838,10401,15712,8353,
49,3168,3938,2017,3805,6369,10590,15326,32,7966,1631,8030,10273,15648,8225,
50,3232,3874,2209,3677,6881,10078,15390,32,8030,1951,7966,10209,15776,7969,
51,3296,3746,1761,3485,6945,9758,15390,32,7838,1887,7902,10529,15968,8161,
52,3360,3810,1825,3549,6753,10078,15454,32,7582,1439,7966,10465,15776,8033,
53,3424,3810,2017,3485,6753,10142,15710,32,7774,1695,8094,10465,15840,7649,
54,3488,3746,1569,3421,6753,10078,15454,32,7902,2207,8350,10657,15968,8033,
55,3552,3874,1441,3421,6689,10526,14878,32,7710,2015,8094,10721,15648,8353,
56,3616,3874,1761,3357,6689,10718,15198,32,7710,1695,7518,10721,15648,8161,
57,3680,3810,1761,3293,6689,10462,15710,32,7902,1887,7454,10785,15904,8417,
58,3744,3810,1633,3613,6561,10462,15582,32,7774,2207,8094,10401,15584,8417,
59,3808,3938,1825,3549,6497,10846,15070,32,7838,2207,8030,10337,15584,8161,
60,3872,3874,1953,3293,6625,10846,15134,32,7966,1951,7006,10657,15968,8353,
61,3936,3682,1825,3357,6625,10526,15134,32,7774,1823,6942,10401,15904,8225,
62,4000,3682,1761,3485,6625,10718,14878,32,7518,1887,8222,10081,15712,7649,
63,4064,3938,1761,3549,6689,10654,15198,32,7710,2015,8414,10401,15968,7585,
64,4128,4066,1825,3549,6689,10078,15646,32,7838,1951,7198,10593,15904,7969,
65,4192,3810,1825,3549,6689,9950,15838,32,7838,1823,7262,10337,15840,7905,
66,4256,3682,1441,3613,6753,10334,15710,32,7774,2015,8222,10209,16032,7905,
67,4320,3810,1505,3549,6817,10334,15582,32,7774,2463,8158,10337,16032,7905,
68,4384,3874,1953,3485,6625,10014,15582,32,7966,2143,7902,10337,15904,7841,
69,4448,3746,1569,3677,6817,10142,15518,32,8158,1439,8094,10401,15904,7969,
70,4512,3682,1377,3741,7073,10270,15454,32,7966,1503,7646,10401,15776,8097,
71,4576,3874,2081,3549,6881,10078,15326,32,7774,1951,6750,10273,15648,8417,
72,4640,3874,2337,3677,6689,10334,15390,32,7774,1951,7390,10273,15904,8353,
73,4704,3746,2145,3613,6817,10782,15390,32,7774,1951,8734,10273,15904,8097,
74,4768,3810,1953,3229,6689,10718,15134,32,7838,2143,8478,10337,15648,8225,
75,4832,3682,1825,3229,6497,10334,15006,32,7838,1759,7134,10593,15584,8417,
76,4896,3490,1697,3421,6433,10270,15070,32,7902,1567,7262,10849,15968,8033,
77,4960,3746,1825,3357,6561,10462,15006,32,7838,2079,8158,10593,15968,7905,
78,5024,4002,1825,3165,6753,10526,15070,32,7774,2271,8030,10145,15776,8481,
79,5088,3938,1889,3357,6881,10590,15582,32,7710,2143,7646,10209,15712,8545,
80,5152,3874,1953,3805,6945,10462,15582,32,7902,2143,7838,10465,15776,8417,
81,5216,3874,1889,3741,6881,10526,15198,32,7838,2207,8350,10401,15840,8609,
82,5280,3746,1889,3549,6689,10718,15326,32,7646,2143,8030,10401,15712,8289,
83,5344,3682,1761,3549,6561,10398,15518,32,7646,2015,7134,10401,15712,8033,
84,5408,3746,1697,3421,6561,10142,15454,32,7710,1631,7006,10337,15776,8225,
85,5472,3746,1889,3357,6689,10206,15646,32,7774,1695,7582,10657,15776,8161,
86,5536,3682,1953,3613,6689,10654,15774,32,7774,2015,7326,10529,15712,8161,
87,5600,3618,1953,3613,6689,10782,15582,32,7710,1823,6814,10017,15712,8481,
88,5664,3618,1953,3421,6753,10526,15390,32,7774,1759,7134,10401,15712,8417,
89,5728,3746,1825,3357,6689,10270,15198,32,7966,1695,7070,11041,15712,8225,
90,5792,3874,1761,3101,6497,10206,15326,32,7966,1375,7006,10529,15904,8225,
91,5856,3746,1953,3229,6753,10014,15198,32,7774,1631,7838,10145,15840,8033,
92,5920,3682,1889,3677,7009,9950,14878,32,7774,2207,8030,10529,15712,7841,
93,5984,3810,1761,3677,6689,10206,15198,32,7966,1951,7582,10657,15776,7969,
94,6048,3874,2017,3485,6625,10206,15518,32,7902,1823,7838,10209,15776,8161,
95,6112,3810,2081,3677,6817,9886,14942,32,7902,2207,8158,10017,15776,8097,
96,6176,3938,1889,3741,6753,10142,15006,32,7902,2079,7774,10337,15840,8033,
97,6240,3810,1761,3421,6817,10526,15710,32,7710,1823,7838,10529,15904,7905,
98,6304,3618,2081,3357,6881,10334,15582,32,7646,1887,8158,10145,15776,7777,
99,6368,3746,1953,3485,6689,10078,15262,32,7902,1887,7838,10145,15648,8417,
100,6432,3746,1569,3485,6753,10142,15582,32,7838,1759,7518,10657,15776,8609,
101,6496,3618,1889,3293,6881,10462,15582,32,7774,1631,7774,10593,15840,7713,
102,6560,3746,2017,3293,6689,10718,15326,32,7838,1823,7646,10145,15712,7521,
103,6624,4002,1505,3613,6817,10334,15454,32,7710,2143,6942,10081,15648,8289,
104,6688,4002,1569,3677,7009,10014,15710,32,7710,2079,7134,10145,15776,8161,
105,6752,3874,2145,3613,6625,10398,15454,32,7902,1823,8158,10145,15776,8033,
106,6816,3938,1953,3549,6497,10654,15070,32,7838,1759,8094,10273,15648,8609,
107,6880,3938,2017,3165,6881,10206,15134,32,7710,2079,7134,10401,15776,8417,
108,6944,3874,2081,2909,6689,10078,15262,32,7966,2079,7326,10657,16032,7969,
109,7008,3810,1505,3101,6369,10718,15262,32,8094,1567,8030,10529,15904,7969,
110,7072,3938,1505,3293,6689,10718,15454,32,7902,1247,7710,10337,15648,7905,
111,7136,4066,1697,3293,6817,10270,15710,32,7774,1695,7134,10529,15648,8033,
112,7200,3874,1377,3357,6561,10462,15582,32,7710,2079,7518,10657,15776,8353,
113,7264,3746,1505,3357,6497,10590,15518,32,7710,1951,7774,10529,15648,8225,
114,7328,3874,1825,3037,6753,10078,15518,32,7966,1887,7198,10465,15840,8097,
115,7392,3810,1825,3165,6817,10078,15518,32,8094,1759,7838,10337,15968,8161,
116,7456,3682,2081,3677,6881,10718,15390,32,7966,1695,8734,10401,15904,8097,
117,7520,3874,2017,3805,6817,10654,15006,32,7902,1887,7582,10657,16032,8097,
118,7584,3874,1569,3485,6625,10014,14942,32,7966,1951,6686,10593,16160,8161,
119,7648,3746,1825,3357,6625,10206,15518,32,7966,1759,7326,10465,16032,8225,
120,7712,3874,2081,3613,6561,10846,15582,32,7838,1759,7582,10465,15776,8161,
121,7776,3746,1761,3677,6369,10718,15134,32,7646,2079,7390,10273,15712,7969,
122,7840,3810,1441,3805,6561,10398,15262,32,7646,2335,7454,10145,15776,8033,
123,7904,4130,1697,3613,6753,10398,15454,32,7774,2207,7710,10721,15904,8417,
124,7968,3938,2081,3421,6689,10334,15390,32,7902,1631,8286,10721,16160,8417,
125,8032,3682,1953,3869,6753,10270,15582,32,7838,1503,8414,10337,16032,8353,
126,8096,3938,1697,3805,6817,10206,15774,32,7710,1951,7902,10529,15712,8353,
127,8160,3938,1569,3037,6625,10206,15390,32,7710,2079,7390,10849,15904,8161,
239,15328,3618,1825,3101,6561,10526,15262,32,7902,1695,6750,10337,16032,7969,
0,32,3682,1953,3805,6689,10526,15390,32,7838,1759,6942,10209,15712,8289,
1,96,4002,1889,3549,6753,10462,15390,32,7774,1823,8158,10401,15520,8353,
2,160,3938,1697,3101,6753,10590,15326,32,7710,1503,8478,10273,15776,8289,
3,224,3746,1697,3357,6561,10590,15390,32,7774,1375,8350,10337,15840,8481,
4,288,3810,1889,3677,6433,10462,15774,32,7902,2015,8286,10593,15968,8097,
5,352,3874,2017,3677,6753,10142,15454,32,7902,2143,8350,10401,15968,7649,
6,416,3746,1697,3421,6817,10078,15006,32,7838,1375,8542,10337,15712,7969,
7,480,3874,1633,3293,6497,10142,15390,32,7838,1311,7838,10529,15968,8289,
8,544,4130,2081,3613,6369,10142,15710,32,7838,1951,6942,10529,16096,8225,
9,608,4066,2145,3805,6561,10398,15454,32,7902,1951,7006,10465,15904,8417,
10,672,3810,1761,3741,6689,10590,15518,32,8030,1567,7390,10273,15840,8225,
11,736,3746,1825,3549,6561,10398,15838,32,7966,1823,7198,10273,15648,7777,
12,800,3810,1953,3357,6497,10462,15646,32,7902,1887,7134,10337,15584,7713,
13,864,3938,1761,3485,6689,10462,15326,32,7902,1567,7390,10209,16160,8097,
14,928,3810,1953,3677,6753,10014,15262,32,7774,1759,7198,10209,16096,8289,
15,992,3490,2081,3165,6497,10142,15390,32,7774,2143,7134,10337,15584,8097,
16,1056,3426,1697,3165,6561,10846,15326,32,7902,1695,6942,10273,15648,8097,
17,1120,3426,1505,3741,6881,10654,15198,32,7774,1439,7198,10337,15776,8353,
18,1184,3554,1761,3741,7009,10334,15454,32,7774,2079,7454,10401,15776,8097,
19,1248,3746,2017,3485,6689,10590,15774,32,7966,2271,7198,10145,15840,8033,
20,1312,3810,1825,3485,6497,10526,15454,32,7902,2079,7582,10209,15712,8353,
21,1376,3682,1825,3293,6561,10142,15262,32,7774,2207,8350,10529,15648,8225,
22,1440,3554,1953,3165,6305,10142,15646,32,7774,2207,7710,10657,15776,7777,
23,1504,3810,1825,3357,6497,10526,15518,32,7710,1951,6494,10401,15904,7905,
24,1568,3810,1633,3549,7201,10718,15070,32,7838,1951,7518,10273,15904,8353,
25,1632,3682,1697,3613,7265,10526,15262,32,7966,1951,8670,10337,15584,8225,
26,1696,3810,1761,3613,6625,10654,15326,32,7966,1951,8414,10401,15648,7777,
27,1760,3938,2017,3613,6945,10910,15134,32,7966,2079,8222,10401,15840,7969,
28,1824,3810,2017,3485,7201,10590,15326,32,7838,1823,8158,10529,15712,8417,
29,1888,3810,1697,3485,6945,10398,15454,32,7646,1631,8094,10465,15648,8225,
30,1952,3938,1697,3421,6881,10718,15390,32,7838,1887,8030,10145,15840,7905,
31,2016,3746,1825,3485,6881,10654,15454,32,7774,2079,7006,10209,15904,8161,
32,2080,3746,1697,3613,6881,10270,15198,32,7390,2015,6686,10785,16032,8225,
33,2144,3810,1633,3741,6945,10526,15134,32,7646,1823,8222,10785,16032,7969,
34,2208,3362,1761,3677,7201,10590,15262,32,8030,1759,8286,10465,15776,8225,
35,2272,3106,1889,3741,7137,10398,15198,32,7838,1951,6750,10529,15840,8673,
36,2336,3298,1953,3677,6625,10398,15390,32,7710,1951,7262,10465,16032,8097,
37,2400,3490,1889,3293,6497,10526,15582,32,7902,1887,8286,10145,15904,7713,
38,2464,3682,1889,3421,6689,10526,15262,32,7902,1951,8030,10273,15712,8417,
39,2528,3682,2017,3613,6817,10398,15262,32,7838,2079,7582,10145,15648,8417,
40,2592,3618,1889,3485,6625,10654,15710,32,7902,1823,7966,9953,15840,8033,
41,2656,3874,1825,3677,6561,10782,15518,32,7774,1951,7838,10401,15840,8545,
42,2720,4066,1889,3805,6625,10270,15006,32,7774,2207,7262,10529,15584,8225,
43,2784,3746,1825,3421,6689,9950,15134,32,7774,2143,7646,10465,15648,7649,
44,2848,3810,1825,3293,6689,10526,15518,32,7646,2207,7902,10465,15840,8161,
45,2912,3938,1953,3549,6497,10654,15326,32,7710,2207,7582,10465,16032,8353,
46,2976,3810,1889,3741,6561,10654,15198,32,7774,2015,7838,10401,16032,7905,
47,3040,3618,1761,3485,6625,10846,15518,32,7774,1951,8286,10529,15584,8161,
48,3104,3618,1697,3549,6881,10526,15902,32,7838,1823,8286,10401,15328,8417,
49,3168,3874,1825,3613,6817,10398,15966,32,7902,1631,8030,10465,15648,8161,
50,3232,3874,2017,3229,6561,10462,15646,32,7838,1631,8222,10593,15712,8225,
51,3296,3618,2017,3101,6817,10206,15390,32,7902,1823,7966,10337,15520,8097,
52,3360,3618,1825,3357,6881,10462,15326,32,7902,1887,8222,10337,15712,7841,
53,3424,3810,1889,3485,6753,10910,15326,32,7902,1759,8478,10401,15904,7841,
54,3488,3874,1889,3421,6945,10590,15390,32,7902,1759,7454,10593,16032,8289,
55,3552,3810,1697,3741,7201,10270,15390,32,7774,2015,6750,10529,16160,8225,
56,3616,3938,1761,3933,6881,10590,15326,32,7774,2143,7774,10273,15904,8033,
57,3680,3618,2017,3741,6753,10718,15518,32,7966,2015,8542,10145,15776,7905,
58,3744,3362,1889,3741,6945,10398,15710,32,7838,1759,7390,10273,15968,7777,
59,3808,3746,1441,3613,6689,10334,15134,32,7710,1631,7006,10401,15904,7905,
60,3872,4066,1569,3485,6497,10590,14686,32,7838,1567,7582,10401,15840,8545,
61,3936,3874,1953,3613,6689,10654,15070,32,7646,1695,7198,10337,15840,8417,
62,4000,3746,1825,3677,6817,10654,15454,32,7582,1759,7198,10337,15904,7777,
63,4064,3938,1761,3293,6881,10654,15518,32,7838,1567,7966,10657,15840,7777,
64,4128,3938,2081,3101,6945,10398,15646,32,7838,1567,8030,10529,15968,8097,
65,4192,3746,2145,3485,6881,10334,15518,32,7646,1759,7134,10273,16160,8033,
66,4256,3618,1889,3613,6689,10462,15262,32,7774,1823,7070,10721,16032,7841,
67,4320,3810,1825,3549,6753,10398,15454,32,7966,1759,7966,10849,15712,7841,
68,4384,3874,1889,3613,6625,10398,15454,32,7902,1951,8158,10273,15648,8353,
69,4448,3618,1825,3741,6497,10334,15006,32,7774,1951,7390,9953,15776,8737,
70,4512,3746,1761,3613,6625,10270,15006,32,7774,1567,7326,10529,15776,8289,
71,4576,3874,1825,3613,6753,10590,15070,32,7838,1695,7454,10721,15712,7777,
72,4640,3746,1761,3805,6817,10654,15006,32,7838,1695,7262,10145,15776,8161,
73,4704,3746,1569,3613,6881,10590,15326,32,7710,1759,7326,10273,15904,8417,
74,4768,3874,1569,3613,6753,10910,15326,32,7710,2207,7518,10721,15904,8225,
75,4832,3810,1825,3549,6625,10654,15134,32,7902,2015,7518,10721,15712,8289,
76,4896,3618,1953,3485,6753,10654,15390,32,7902,1439,7902,10337,15712,8289,
77,4960,3682,2017,3741,6945,10910,15390,32,7774,1823,7966,10657,15840,8033,
78,5024,3810,1953,3677,6945,10526,15262,32,7902,2079,7326,10785,15840,8033,
79,5088,3874,1569,3101,6497,10334,15646,32,8030,1567,7134,10401,15776,8225,
80,5152,3746,1697,3293,6305,10782,15710,32,7902,1951,7326,10145,15776,7905,
81,5216,3554,2081,3485,7009,10974,15454,32,7774,2335,7326,10401,15904,7969,
82,5280,3490,1761,3293,7137,10846,15518,32,8030,1951,7518,10401,15776,8289,
83,5344,3746,1505,3613,6561,10782,15454,32,8094,1631,7710,10209,15712,7777,
84,5408,3938,1761,3741,6561,10590,15326,32,7838,1631,7582,10401,16096,7521,
85,5472,3810,1889,3165,6817,10526,15518,32,7646,1887,7326,10721,15968,8353,
86,5536,3810,1761,3229,6689,10526,15518,32,7774,1823,7134,10593,15328,8801,
87,5600,3874,1889,3613,6753,10334,15134,32,7774,1567,7198,10209,15584,8097,
88,5664,3682,1825,3613,6817,10718,15198,32,7710,1887,7390,10209,16224,8033,
89,5728,3874,1761,3677,6817,10910,15390,32,7902,2143,7262,10401,15840,8353,
90,5792,4194,1953,3677,7201,10398,15326,32,7838,1887,7326,10145,15712,7969,
91,5856,4002,1953,3613,7009,10142,15390,32,7902,1823,7902,10081,16160,7841,
92,5920,3810,1697,3677,6433,10590,15454,32,7902,1951,8158,10657,16096,8417,
93,5984,3874,1761,3357,6689,10846,15326,32,7774,1759,7070,10721,15776,8417,
94,6048,3938,1889,3229,7073,10398,15198,32,7774,1823,6942,10465,15968,7585,
95,6112,3810,1569,3485,6753,10014,15390,32,7774,1887,8350,10657,16032,7457,
96,6176,3554,1505,3485,6689,10142,15518,32,7710,1887,8670,10785,15904,8225,
97,6240,3554,1825,3293,6945,10334,15646,32,7838,2015,7838,10273,15776,8417,
98,6304,3874,1761,3165,6689,10462,15518,32,8094,2079,7582,10017,15904,8225,
99,6368,3874,1761,3165,6369,10654,15070,32,8030,1951,8094,10401,15904,8353,
100,6432,3490,2017,3421,6561,10846,15134,32,7838,1823,8158,10785,15776,8417,
101,6496,3554,1953,3741,6689,10718,15454,32,7838,2079,7070,10593,15712,8161,
102,6560,3938,1697,3549,6625,10654,15390,32,7774,2271,7006,10145,15840,8353,
103,6624,4002,2081,3293,6753,10654,15262,32,7710,2079,8158,10401,16032,8673,
104,6688,3682,2337,3357,6753,10718,15198,32,7774,2015,7582,10721,15904,8417,
105,6752,3810,2017,3357,6753,10718,15070,32,7838,2207,7006,10465,15456,7905,
106,6816,4002,1761,3293,6817,10590,15198,32,7774,2079,8414,10465,15456,8033,
107,6880,3682,1953,3357,6881,10398,15390,32,7710,1823,8094,10785,15840,8417,
108,6944,3490,2081,3485,7009,10334,15134,32,7838,1887,6494,10593,15712,8481,
109,7008,3682,1761,3549,6817,10526,15070,32,7902,1887,7390,10657,15712,8417,
110,7072,3938,1953,3549,6561,10782,15262,32,7774,1823,8478,10593,15904,8225,
111,7136,3874,2017,3677,6817,10590,15134,32,7710,1887,7774,10209,15968,8289,
112,7200,3746,1505,3741,6945,10526,15070,32,7774,1887,7710,10273,15968,8417,
113,7264,4002,1569,3485,6689,10654,15262,32,7902,1759,7774,10721,15968,8033,
114,7328,4130,1825,3357,6753,10526,15518,32,7710,1695,6750,10465,15648,8033,
115,7392,3874,1825,3485,6753,10270,15710,32,7710,1951,6814,10209,15648,8353,
116,7456,3746,1697,3613,6625,10590,15582,32,7966,1887,7838,10273,15904,7905,
117,7520,3682,1953,3677,6753,10910,15198,32,7838,1503,7838,10337,15904,7585,
118,7584,3490,1761,3677,6817,10654,15262,32,7710,1631,7838,10337,15712,8225,
119,7648,3682,1697,3421,6753,10398,15518,32,7902,2143,8094,10273,15840,8289,
120,7712,3874,1889,3229,6689,10654,15390,32,7966,2207,8158,10145,15904,7905,
121,7776,3682,1953,3549,6753,10398,15134,32,7838,1887,8350,10145,15712,8097,
122,7840,3746,1889,3741,6945,10078,15198,32,7838,1759,7838,10209,15712,8161,
123,7904,4002,1697,3357,6817,10654,15390,32,7710,1631,7006,10145,15648,7969,
124,7968,3682,1697,3293,6497,10718,15518,32,7774,1567,7198,10145,15584,8289,
125,8032,3682,1953,3613,6561,10014,15326,32,7966,1631,7582,10273,16032,8353,
126,8096,3938,1889,3613,6817,10270,15006,32,7902,1759,6942,10337,16288,7905,
127,8160,3938,1633,3293,6945,10910,15134,32,7774,2143,6878,10337,15904,7969,
239,15328,3810,1761,3421,6817,10526,15518,32,7838,2271,7326,10529,15776,8417,
0,32,4002,1953,3805,6753,10334,15646,32,7774,1887,7070,10593,15904,8289,
1,96,4194,1761,3613,7009,10526,15518,32,7646,1823,7262,10465,15840,8097,
2,160,3938,1889,3421,7009,10142,15390,32,7710,1887,7710,10465,15776,8097,
3,224,3682,2145,3741,6881,9950,15262,32,7838,1887,7966,10529,15840,8097,
4,288,3746,1953,3869,6753,10462,15454,32,7902,1887,7838,10465,15584,7969,
5,352,3810,1761,3613,6689,10526,15582,32,7966,1823,7518,10465,15520,8161,
6,416,3746,1889,3613,6561,10270,15454,32,7902,1567,8030,10593,15648,8673,
7,480,3362,1889,3357,6817,10334,15518,32,7838,1695,8094,10529,15648,8353,
8,544,3234,1761,3101,6945,10654,15710,32,7838,1951,8094,10209,15648,7905,
9,608,2914,1825,2909,6817,10718,15710,32,7902,1631,8414,10145,15584,8033,
10,672,2722,1761,2909,7073,10718,15454,32,7838,1567,7838,10401,15584,8161,
11,736,2722,1697,2909,7201,10910,15582,32,7838,1951,6686,10273,15648,8097,
12,800,3298,1825,3293,6753,10782,15646,32,7838,2143,7198,10145,15648,8609,
13,864,3490,1633,3485,6561,10910,15518,32,7774,1823,8350,9953,15712,8417,
14,928,2978,1505,3101,6625,10910,15454,32,7710,1951,7390,10017,15776,7713,
15,992,3170,1697,3165,6561,10718,15646,32,7710,2271,6750,10273,15712,7777,
16,1056,3746,1953,3677,6689,10974,15582,32,7774,2015,7582,10465,15648,7969,
17,1120,3746,1953,3805,7009,10974,15646,32,7902,1759,7646,10401,15584,7841,
18,1184,3490,1761,3613,6689,10334,15710,32,7838,1695,7454,10401,15648,7969,
19,1248,3746,1505,3549,6369,10270,15134,32,7774,1759,7838,10401,15712,8225,
20,1312,4066,1569,3613,6625,10718,14750,32,7646,1887,8030,10465,15904,8033,
21,1376,3874,1953,3741,6881,10526,15006,32,7582,1887,7774,10721,15968,8161,
22,1440,4002,2017,3869,6753,10462,15326,32,7710,1631,7966,10657,15840,8481,
23,1504,4002,1953,3805,6561,10526,15070,32,7902,1631,7582,10081,15776,8289,
24,1568,3874,2145,3677,6625,10398,14942,32,7902,1887,6878,10081,15904,8033,
25,1632,3810,2017,3485,6753,10654,15326,32,7774,1695,7454,10849,15840,8289,
26,1696,3810,1505,3549,6625,10974,15646,32,7902,1567,8030,10849,15648,8481,
27,1760,3874,1505,3741,6625,10590,15262,32,7838,1951,7838,10209,15712,8225,
28,1824,3810,1953,3677,6817,10334,14942,32,7582,2143,7774,10081,15776,8161,
29,1888,3810,1953,3677,6433,10398,15390,32,7774,1631,8030,10337,15712,8417,
30,1952,3938,1697,3741,6433,10526,15582,32,8030,1631,8094,10273,15712,8353,
31,2016,3810,1697,3549,7073,10590,15518,32,7710,2079,7902,10401,15904,7969,
32,2080,3618,1825,3229,7009,10654,15582,32,7646,1823,7838,10721,15904,8033,
33,2144,3810,1953,3165,6817,10526,15326,32,7902,1503,7646,10529,15904,8353,
34,2208,4002,1953,3293,7073,10654,15134,32,7902,2079,7966,10209,16096,8289,
35,2272,3682,1697,3613,6753,10654,15518,32,7774,2399,7966,10465,15968,8225,
36,2336,3746,1697,3741,6369,10398,15646,32,7710,2015,7198,10593,15584,8481,
37,2400,4130,1825,3677,6689,10334,15518,32,7646,1823,6622,10081,15584,8417,
38,2464,4066,1825,3421,6753,10334,15774,32,7646,1759,6878,10145,15840,7969,
39,2528,3682,1697,3421,6881,10334,15774,32,7710,1951,7390,10529,15904,8033,
40,2592,3490,1761,3421,6945,10590,15198,32,7710,1951,7774,10465,15904,8417,
41,2656,3810,1825,3357,6753,10782,15070,32,7774,1631,8094,10465,15904,8545,
42,2720,4002,1889,3549,7073,10526,15134,32,7902,1695,8158,10465,15840,8289,
43,2784,3874,1953,3549,6945,10526,15262,32,7966,2143,7902,10017,15776,8161,
44,2848,3746,1953,3357,6305,10718,15518,32,7966,2207,7646,9953,15968,8353,
45,2912,3682,1889,3357,6433,10782,15454,32,7838,1951,7902,10273,15904,8417,
46,2976,3682,1825,3229,6561,10782,15070,32,7774,2015,8094,10401,15648,8225,
47,3040,3938,1889,3165,6561,10910,15070,32,7774,2207,7390,10401,15712,8289,
48,3104,4066,2017,3549,7073,10590,15390,32,7838,2143,7134,10529,15840,8673,
49,3168,3874,1633,3613,7009,9886,15390,32,7966,2143,7390,10337,15648,8545,
50,3232,3746,1313,3421,6433,10078,15454,32,7902,2207,7646,10401,15712,8225,
51,3296,3874,1761,3421,6689,10718,15838,32,7902,1823,7902,10721,15776,8225,
52,3360,3874,2081,3549,6689,10526,15646,32,7902,1503,8030,10465,15648,8225,
53,3424,3746,1633,3485,6433,10334,15198,32,7774,2015,7902,10081,15648,8289,
54,3488,3682,1633,3229,6561,10590,15390,32,7710,2335,8094,10145,15968,8609,
55,3552,3682,1825,3229,6561,10590,15646,32,7710,2143,7774,10273,15904,8609,
56,3616,3874,1633,3613,6561,10526,15198,32,7710,2207,7134,10401,15648,8289,
57,3680,3938,1441,3741,6689,10654,14942,32,7902,2143,7134,10465,15712,8417,
58,3744,3682,1569,3421,6625,10590,15326,32,7838,1951,7262,10337,15840,8225,
59,3808,3746,1697,3677,6497,10718,15390,32,7710,2015,7518,10465,16032,8033,
60,3872,3746,1761,3549,6753,10718,15198,32,7902,1887,7646,10337,15968,8161,
61,3936,3554,1825,2973,6497,10462,15326,32,7966,1631,7774,10145,15904,8225,
62,4000,3682,1889,3421,6497,10590,15582,32,7838,1567,8158,10145,15904,8033,
63,4064,3938,1825,3869,7009,10846,15582,32,7966,1695,7518,10145,15904,8033,
64,4128,3874,1953,3485,6817,10654,15518,32,7838,2015,6878,10273,15776,8097,
65,4192,3746,1761,3229,6433,10206,15390,32,7710,2015,7454,10465,15776,7777,
66,4256,3746,1249,3421,6689,10142,15454,32,7902,1823,7582,10401,16032,7905,
67,4320,3810,1313,3293,6625,10334,15646,32,8030,1951,7198,10401,15904,8481,
68,4384,3938,1761,3165,6305,10654,15518,32,7902,1951,7134,10529,15712,8609,
69,4448,3810,1761,3101,6497,10654,15518,32,7902,1759,7070,10401,15712,8097,
70,4512,3682,1697,3165,6433,10398,15710,32,7902,1823,7582,10337,15776,7841,
71,4576,3938,2017,3357,6497,10334,15710,32,7838,2079,8286,10465,15904,8161,
72,4640,3938,2081,3293,6817,10526,15646,32,7838,1887,8030,10273,15776,8353,
73,4704,3618,1953,3229,7073,10654,15518,32,7774,1503,7582,10273,15712,8289,
74,4768,3682,1889,3421,7009,10526,15390,32,7774,1759,7966,10657,15840,8225,
75,4832,3938,1697,3549,7073,10462,15518,32,7774,2335,8094,10721,15776,8353,
76,4896,3810,1761,3293,7201,10718,15390,32,7454,2271,7774,10593,15520,8161,
77,4960,3682,1825,3165,6945,10782,15134,32,7390,1887,7774,10529,15584,8097,
78,5024,3810,1441,3613,6689,10462,15582,32,7774,1887,7838,10465,15904,8417,
79,5088,3874,1441,3677,6625,10334,15902,32,8030,1759,7326,10209,16032,8545,
80,5152,3746,1825,3293,6369,10590,15262,32,7902,1631,6942,10401,16352,8289,
81,5216,3810,1825,3549,6369,10718,15134,32,7838,1439,7902,10209,16160,8097,
82,5280,3938,1569,3933,6817,10590,15454,32,7902,1311,8350,10017,15712,8161,
83,5344,3810,1761,3613,6881,10718,15454,32,7966,1823,7134,10337,15712,8225,
84,5408,3682,1953,3293,6497,10654,15454,32,7838,2335,7006,10529,15904,8225,
85,5472,3746,1633,3421,6497,10334,15774,32,7646,1823,7902,10337,15712,8161,
86,5536,3554,1441,3549,6817,10462,15646,32,7774,1375,8094,10273,15840,8033,
87,5600,3426,1889,3613,6881,10718,15390,32,8030,1631,7966,10465,16160,8033,
88,5664,3490,1953,3485,6625,10718,15518,32,7774,1759,7902,10529,16160,8097,
89,5728,3746,1569,3293,6561,10654,15582,32,7710,1695,8030,10337,16032,8097,
90,5792,3874,1569,3421,6817,10654,15454,32,7902,1439,8094,10145,15712,8225,
91,5856,3874,1889,3613,6753,10590,15518,32,7902,1695,8222,10273,15584,8801,
92,5920,3746,1953,3357,6689,10590,15518,32,7710,2271,8094,10465,15712,8609,
93,5984,3746,1889,3229,6689,10462,15518,32,7774,2271,8222,10401,15648,7393,
94,6048,3938,1633,3549,6497,10462,15518,32,7774,2079,8414,10529,15520,7713,
95,6112,3746,1569,3613,6625,10654,15326,32,7710,2207,8030,10529,15840,8673,
96,6176,3618,2145,3677,7073,10782,15134,32,7774,2079,8286,10145,15840,8545,
97,6240,3810,2145,3805,6817,10846,15454,32,7774,1759,8158,10337,15840,8417,
98,6304,4002,1761,3677,6433,10654,15838,32,7710,1695,7134,10657,15840,8481,
99,6368,3810,1697,3741,6753,10526,15710,32,7838,1823,6942,10401,15776,8289,
100,6432,3682,1889,3805,6945,10782,15262,32,7646,1887,7262,10145,15648,8289,
101,6496,3810,2145,3549,6625,10654,15326,32,7262,1823,7326,10529,15712,8289,
102,6560,3810,1953,3485,6433,10462,15710,32,7518,1567,7582,10593,15776,8033,
103,6624,3810,1249,3549,6817,10526,15710,32,8030,1631,8030,10401,15712,8033,
104,6688,3874,1249,3485,7009,10398,15582,32,7838,1631,8094,10657,15712,8033,
105,6752,3746,1889,3357,6689,10206,15582,32,7710,1439,8158,10657,15840,7969,
106,6816,3810,1889,3293,6689,10398,15134,32,7902,1503,8158,10209,15968,7905,
107,6880,3874,1505,3357,6753,10590,14686,32,7774,1695,8158,10145,15776,7969,
108,6944,3874,1761,3613,6497,10526,15070,32,7710,1759,8286,10401,15776,8481,
109,7008,3618,2209,3485,6689,10462,15390,32,7838,1695,7774,10337,15904,8481,
110,7072,3362,1825,3421,6753,10590,15006,32,7902,1631,7326,10145,15968,8033,
111,7136,3426,1441,3677,6625,10910,14814,32,7774,1695,7134,10209,15904,8225,
112,7200,3746,1889,3549,6753,10782,15262,32,7838,1887,7454,10401,15776,8289,
113,7264,3810,1953,3357,7009,10718,15518,32,7902,1695,8286,10465,15648,7905,
114,7328,3554,1569,3549,6753,10654,15518,32,7838,1439,8222,10593,15776,8161,
115,7392,3746,1889,3549,6497,10270,15582,32,7838,1631,8030,10529,15840,8545,
116,7456,3938,2273,3485,6561,10014,15582,32,7774,1823,8542,10401,15840,8225,
117,7520,3938,1761,3613,6689,10270,15518,32,7774,1951,7710,10337,15904,7841,
118,7584,4002,1569,3613,6945,10462,15710,32,7838,2079,6750,10081,15776,7905,
119,7648,3810,1697,3549,6881,10334,15710,32,7966,1887,7774,10081,15584,8161,
120,7712,3682,1633,3613,6561,10270,15326,32,7966,1631,8286,10529,15840,8225,
121,7776,3810,1633,3485,6753,10526,15326,32,7774,1567,6942,10529,16032,8097,
122,7840,3874,1633,3421,6625,10718,15454,32,7582,1631,6750,10209,15968,7969,
123,7904,3682,1441,3549,6241,10718,15134,32,7774,1695,7134,10529,16032,8033,
124,7968,3746,1569,3677,6561,10590,15006,32,7966,1503,7070,10721,15840,8161,
125,8032,4002,2017,3613,6881,10590,15518,32,7838,1375,7326,10529,15712,8033,
126,8096,3938,1825,3549,6817,10590,15710,32,7838,1823,7390,10401,15840,8097,
127,8160,3682,1377,3485,6753,10718,15454,32,7966,2079,7454,10401,16032,8481,
239,15328,3618,1697,3677,6881,10718,15582,32,7966,1823,7838,10209,15840,8417,
0,32,3874,1889,3805,7073,10654,15646,32,7902,1759,8158,10081,15776,8033,
1,96,3938,1697,3741,7201,10654,15518,32,7838,1631,7838,9953,15968,8097,
2,160,3746,1633,3549,6689,10590,15646,32,7966,1631,7646,10145,15968,8097,
3,224,3618,1505,3549,6369,10526,15838,32,7902,2015,8094,10337,15776,7905,
4,288,3874,1441,3613,6625,10462,15454,32,7646,2015,8286,10337,15776,8097,
5,352,4002,1761,3677,6497,10462,15070,32,7710,1759,8094,10337,15840,7969,
6,416,3618,1889,3677,6753,10526,15006,32,7774,1823,7454,10529,15968,8097,
7,480,3490,1633,3549,7265,10526,15326,32,7774,1887,7454,10401,16032,8545,
8,544,3746,1697,3613,6945,10462,15390,32,7838,1887,7710,10081,15904,8161,
9,608,3938,1825,3677,6305,10718,15390,32,7838,1759,7262,10273,15968,7713,
10,672,3874,1825,3613,6817,10846,15582,32,7838,1631,7070,10721,16032,7969,
11,736,4002,2145,3677,7265,10590,15262,32,7774,1695,7774,10657,15840,7905,
12,800,3938,2081,3805,6945,10462,14878,32,7710,1631,8222,10209,15712,7585,
13,864,3682,1953,3677,6945,10654,15262,32,7774,1695,7902,10337,15968,8033,
14,928,3874,2209,3613,6945,10974,15710,32,7966,1951,8030,10529,15968,8289,
15,992,4002,2145,3549,6689,10846,15518,32,7838,2143,7838,10273,15648,8033,
16,1056,3810,1761,3485,6625,10654,15518,32,7646,2143,7582,10273,15648,8033,
17,1120,3810,1633,3421,6433,10654,15518,32,7774,2079,7774,10721,16096,8097,
18,1184,3938,1953,3485,6305,10590,15134,32,7838,1887,7454,10721,16096,8225,
19,1248,3810,1953,3549,6945,10462,15134,32,7838,1887,7326,10401,15648,8481,
20,1312,3746,1697,3677,7265,10590,15454,32,7902,2015,7390,10209,15520,8353,
21,1376,3938,1761,3805,6625,10782,15518,32,7902,2015,7326,10337,15840,8161,
22,1440,4066,2017,3677,6497,10718,15518,32,7902,2207,7902,10529,15712,8289,
23,1504,3746,2081,3549,7009,10590,15582,32,7902,2015,8286,10721,15456,8225,
24,1568,3554,1761,3613,7073,10590,15198,32,7966,1695,7070,10593,15776,8033,
25,1632,3746,1697,3741,6881,10654,15006,32,7838,2015,6430,10337,15968,8161,
26,1696,3874,1825,3741,6753,10782,15390,32,7838,1823,7710,10273,15776,8289,
27,1760,3874,1889,3549,6625,10654,15838,32,7902,1375,8414,10209,15584,8097,
28,1824,3810,1953,3549,6753,10398,15710,32,7966,1759,7710,10465,15904,8289,
29,1888,3810,2145,3869,6945,10462,15454,32,7838,2207,7198,10529,15968,8097,
30,1952,3938,2081,3805,6753,10526,15646,32,7838,1951,7454,10337,15776,7649,
31,2016,3874,1889,3293,6625,10526,15838,32,7838,1887,7518,10465,15840,8097,
32,2080,3810,1825,3421,6881,10654,15390,32,7774,2143,7710,10721,15968,8161,
33,2144,3874,1889,3805,6881,10846,15134,32,7838,1951,8030,10209,15712,7777,
34,2208,3874,2017,3485,6561,10590,15326,32,7902,1567,7710,9953,15776,8289,
35,2272,3810,1761,3357,6625,10590,15582,32,7966,1759,7646,10337,16032,8673,
36,2336,3874,1505,3421,6817,10782,15582,32,8030,2271,7966,10401,15840,8097,
37,2400,3938,1889,3165,6753,10718,15582,32,7902,2143,8158,10273,15520,7969,
38,2464,3938,2209,3229,6561,10398,15646,32,7774,1887,7902,10657,15840,8545,
39,2528,3810,1505,3677,6625,10462,15390,32,7774,2207,7838,10593,16032,8481,
40,2592,3682,993,3741,6625,10590,15070,32,7774,2143,7646,10017,15840,8289,
41,2656,3810,1697,3485,6305,10334,15262,32,7838,1823,7774,10145,15776,8353,
42,2720,4066,2209,3613,6689,10334,15518,32,7966,1823,8158,10337,15968,8353,
43,2784,3938,1825,3549,7201,10782,15198,32,8030,1887,7774,10145,16096,8225,
44,2848,3810,1761,3421,7137,10718,15134,32,7966,1759,7070,10209,16096,8353,
45,2912,3810,1761,3293,6881,10526,15326,32,7902,1759,6686,10593,15840,8545,
46,2976,4258,1569,3677,7201,10462,15390,32,7774,1951,7134,10593,15584,8417,
47,3040,3618,1505,3165,6625,10590,15518,32,7838,2079,7518,10465,15456,8481,
48,3104,3682,1825,3869,6881,10462,15582,32,7774,1759,6942,10529,16096,8545,
49,3168,4322,1825,4253,7201,10334,15326,32,7774,1695,7134,10465,16032,8289,
50,3232,1506,1185,925,5217,10846,15006,32,8414,2591,8030,10145,14432,8097,
51,3296,2338,1569,2525,6177,10462,15198,32,7710,2271,7838,10273,15264,8353,
52,3360,5282,2209,5533,8097,10078,15518,32,7006,1503,6942,10594,32,8417,
53,3424,5090,1953,4893,7713,10270,15518,32,7582,1695,7262,10593,15840,8225,
54,3488,2978,1697,2653,6305,10782,15518,32,8158,2079,7454,10337,15072,8097,
55,3552,4194,2145,4189,7393,10718,15454,32,7646,1631,6878,10465,16032,8481,
56,3616,4258,1697,3805,7457,10654,15390,32,7774,1439,7774,10465,16096,8737,
57,3680,3298,1121,2909,6945,10654,15582,32,8094,1631,8542,10465,15584,8609,
58,3744,4066,1633,4125,7329,10398,15518,32,7838,1439,7518,10529,15776,8609,
59,3808,3746,1697,3869,7009,10654,15390,32,7838,1503,6878,10401,15904,8225,
60,3872,3682,1569,3549,7137,10654,15710,32,7774,2015,7198,10401,16352,7841,
61,3936,3874,2081,3229,6881,10654,15518,32,7710,2335,7134,10145,16160,8225,
62,4000,3874,1953,3293,6689,10782,15070,32,7582,2015,7454,10273,15648,8417,
63,4064,3682,1569,3485,7393,10782,15518,32,7582,1631,8030,10657,15584,8161,
64,4128,3810,1377,3549,7905,10718,15774,32,7966,1823,7582,10593,15712,8609,
65,4192,4002,1377,3549,7393,10782,15262,32,7966,1887,6558,10273,15264,8609,
66,4256,4002,1441,3613,6945,10782,15198,32,7902,1695,6942,10529,15200,8161,
67,4320,3746,1441,3613,7009,10590,15582,32,7966,1631,8094,10657,15712,8161,
68,4384,3490,1377,3357,6945,10526,15390,32,7966,1695,8286,10401,15776,8033,
69,4448,3746,1505,3357,7009,10526,15198,32,7838,1887,8158,10337,15456,7649,
70,4512,4130,1697,3613,7201,10462,15518,32,8030,1887,8414,10593,15712,7841,
71,4576,4258,1825,3613,7265,10590,15710,32,8030,1759,7646,10785,16032,8225,
72,4640,4130,2017,3421,7265,10590,15646,32,7710,1631,6942,10401,15904,8225,
73,4704,3938,1889,3421,7009,10526,15710,32,7838,1759,7966,10145,15776,8161,
74,4768,3554,1633,3613,6625,10654,15646,32,8094,1887,8286,10145,15584,8161,
75,4832,4066,2145,4125,7329,10398,15326,32,7774,1759,6878,10401,15840,8417,
76,4896,3490,2081,2397,6945,10398,15326,32,7838,1951,7134,10337,15712,8097,
77,4960,3618,1761,2717,6433,10462,15582,32,7710,1823,7902,10209,15648,7713,
78,5024,4898,1953,4701,7073,10142,15518,32,7262,1567,7198,10401,15968,8033,
79,5088,4194,1889,3613,7137,10142,15262,32,7710,1887,7134,10529,16032,8417,
80,5152,3362,1633,2077,6881,10462,15326,32,8222,2015,8286,10273,15968,7969,
81,5216,3682,1569,3165,6817,10398,15582,32,7966,1631,7710,10209,15968,7713,
82,5280,4322,1697,4445,7265,10526,15646,32,7774,1567,6622,10593,15776,8097,
83,5344,3106,1633,2973,6817,10718,15198,32,8158,1887,7454,10465,15520,8225,
84,5408,3554,1633,3485,7137,9822,15070,32,7774,1567,7646,10145,15776,8225,
85,5472,3746,1505,3677,7009,10078,15390,32,7518,1503,7134,10401,15712,8033,
86,5536,3810,1953,3805,7073,10846,15582,32,7646,1695,7710,10465,15520,7649,
87,5600,3874,2337,3485,6945,10590,15518,32,7838,1695,7838,10273,15712,7649,
88,5664,3746,1889,3485,6881,10398,15326,32,7774,1823,7518,10209,15968,8033,
89,5728,3682,1441,3613,6817,10654,15326,32,7646,2207,7902,10401,15776,8225,
90,5792,3682,1889,3613,6561,10334,15390,32,7710,2015,8222,10593,15712,8289,
91,5856,3938,2017,3613,6881,10206,15390,32,7966,1567,8030,10529,15904,8353,
92,5920,3938,1633,3357,7201,10526,15134,32,8094,1631,7454,10273,15776,8033,
93,5984,3810,1633,3229,7137,10334,15070,32,7838,1823,7070,10273,15520,7905,
94,6048,3810,1889,3485,6945,10526,15454,32,7710,1951,7390,10593,15840,8225,
95,6112,3554,2017,3613,7009,10846,15518,32,7838,1951,7198,10465,16096,8225,
96,6176,3234,1953,3293,6945,10782,15070,32,7902,1823,6878,10273,15904,8225,
97,6240,3554,1889,3549,6945,10910,15262,32,7838,1695,8094,10337,15776,8033,
98,6304,3746,1697,3805,6689,10910,15582,32,7902,1887,8542,10337,15904,7713,
99,6368,3618,1761,3677,6561,10142,15262,32,7966,1887,7006,10337,15840,8033,
100,6432,3746,1761,3677,6945,9630,15198,32,7902,1567,7070,10593,15840,8545,
101,6496,3810,1889,3741,7137,10206,15646,32,7774,1631,7902,10593,15840,8417,
102,6560,3618,2081,3485,6753,10526,15774,32,7966,2079,7838,10337,15776,8289,
103,6624,3746,1825,3549,6881,10462,15262,32,8094,2143,7838,10337,15968,8481,
104,6688,4002,1697,3805,6945,10462,15070,32,8030,1631,7774,10529,16096,8161,
105,6752,3810,1569,3741,6689,10526,15454,32,7966,1567,7902,10273,16032,7841,
106,6816,3810,1569,3549,6817,10526,15518,32,7902,1951,8478,10145,15968,8289,
107,6880,3874,1697,3357,6881,10654,15454,32,7774,1823,7838,10401,15712,8545,
108,6944,3810,1889,3421,6625,10654,15646,32,7966,1439,6686,10401,15456,8161,
109,7008,3810,1633,3677,7009,10398,15326,32,8030,1503,7646,10145,15776,7841,
110,7072,3874,1633,3549,7073,10590,15006,32,7710,1567,8670,10273,15904,8033,
111,7136,3874,1761,3293,6689,10782,15326,32,7838,1631,8286,10721,15648,8289,
112,7200,4002,1633,3613,6753,10526,15390,32,8158,1887,8222,10657,15776,8289,
113,7264,3938,1697,3613,6753,10398,15262,32,8094,2143,8222,10209,16096,8353,
114,7328,3746,1697,3229,6561,10718,15454,32,7838,2207,8414,10337,15904,8353,
115,7392,3938,1377,3293,6625,10910,15454,32,7902,2143,8350,10657,15776,8097,
116,7456,3938,1505,3677,6817,10846,15582,32,7902,2143,7198,10337,15840,7969,
117,7520,3746,1825,3869,7009,10654,15646,32,7774,2079,6750,10081,15840,8097,
118,7584,3618,2145,3741,7137,10590,15198,32,7838,1951,7326,10337,15712,7969,
119,7648,3682,2337,3549,7009,10782,15262,32,7902,2015,7326,10273,15712,7905,
120,7712,3682,2081,3677,6945,10910,15710,32,7902,2143,6622,10081,15712,7969,
121,7776,3810,1569,3869,7009,10654,15646,32,7966,1887,6750,10401,15776,8225,
122,7840,4002,1569,3485,6753,10462,15390,32,7902,1759,7966,10657,15840,8609,
123,7904,3490,2081,3229,7073,10654,15262,32,7774,1759,8862,10593,15840,8161,
124,7968,3170,1889,3293,7201,10846,15454,32,7902,1503,7966,10465,15712,7777,
125,8032,3746,1441,3229,6625,10526,15710,32,8030,1695,7198,10593,15584,8161,
126,8096,4066,1441,3421,6625,10270,15646,32,7838,2015,7646,10721,15776,8417,
127,8160,3682,1697,3613,6817,10526,15454,32,7710,1823,7326,10721,15904,8289,
239,15328,3682,1697,3421,6689,10654,15390,32,7710,1631,7070,10337,15776,8097,
0,32,3810,1889,3485,6497,10462,15390,32,7774,1823,7966,10017,15776,8033,
1,96,3810,2081,3741,6433,10590,15390,32,7838,1951,7838,10337,15968,8353,
2,160,3490,2017,3357,6497,10910,15518,32,7966,1887,6622,10721,15968,8481,
3,224,3234,1825,2845,6497,10590,15518,32,7902,1951,7390,10849,15840,8097,
4,288,3170,1697,3101,6753,10206,15582,32,7966,1951,8286,10401,15712,7969,
5,352,3042,1889,3229,6945,10526,15646,32,8030,1887,7838,10081,15712,8161,
6,416,2530,1953,2909,7009,10974,15582,32,7902,1759,7902,10273,15648,8161,
7,480,2530,1569,2909,6945,10846,15454,32,7774,1759,8158,10401,15456,7841,
8,544,2850,1697,2973,6881,10718,15518,32,7774,1887,8094,10081,15456,7713,
9,608,2530,2017,2589,7009,11166,15646,32,7774,1823,8286,9889,15648,8097,
10,672,2466,1761,2461,6945,11102,15646,32,7838,1439,7838,10337,15648,8481,
11,736,2658,1441,2909,7009,10654,15582,32,7966,1695,6622,10465,15328,8161,
12,800,2978,1889,2909,7073,10590,15518,32,7774,2079,7582,10337,15392,7905,
13,864,2978,2017,2973,6817,10846,15518,32,7646,1823,8478,10273,15648,8225,
14,928,2978,1697,3805,6689,10846,15582,32,7710,1567,7454,10337,15776,8353,
15,992,3170,1761,3805,6817,10590,15518,32,7582,1887,7902,10273,15712,8225,
16,1056,3042,1889,3101,7073,10206,15518,32,7582,1951,8158,10465,15904,7969,
17,1120,3170,1953,3037,6881,10462,15646,32,7838,1631,6814,10529,16032,8097,
18,1184,3426,1953,3613,6817,10974,15646,32,7902,1695,7070,10401,15904,8225,
19,1248,3682,1697,3741,6753,11038,15518,32,7966,1823,8286,10401,15776,8097,
20,1312,3746,1441,3357,6497,10846,15198,32,7902,1759,7710,10529,15904,8225,
21,1376,3938,1889,3549,6753,10910,15070,32,7902,1823,6430,10209,15968,8417,
22,1440,3938,2081,3869,6881,10718,15070,32,7966,1823,6750,9953,15904,8161,
23,1504,3938,1697,3869,6625,10590,15134,32,7902,1951,7838,10081,15840,8097,
24,1568,4002,1697,4125,6881,10654,15198,32,7774,2015,8094,10337,15712,7905,
25,1632,3810,1889,4381,7009,10462,15454,32,7710,1887,7838,10657,15776,7777,
26,1696,4002,2081,4061,6945,10526,15646,32,7710,1503,8030,10593,15840,7841,
27,1760,4066,1825,3613,6945,10462,15262,32,7838,1247,8030,9953,15648,7777,
28,1824,4002,1697,3869,7073,10526,15070,32,8094,1439,7902,9825,15712,7905,
29,1888,3874,1761,4189,6881,10526,15390,32,7966,1823,7454,10209,15968,8417,
30,1952,3938,1441,3869,7009,10334,15582,32,7710,2015,7070,10209,15904,8609,
31,2016,4066,1569,3549,7137,10206,15390,32,7838,1887,7390,10145,15904,8417,
32,2080,4066,2081,3805,6945,10398,15390,32,8030,2015,7326,10209,16096,8481,
33,2144,3938,1697,3997,6753,10654,15582,32,7902,2143,7198,10401,16032,8545,
34,2208,4002,1377,3485,6689,10654,15582,32,7774,1695,8030,10401,15968,7969,
35,2272,4130,1889,3485,6689,10526,15326,32,7902,1631,8350,10465,15968,7713,
36,2336,4194,2081,3805,6561,10398,15390,32,7838,1823,7518,10401,15904,8097,
37,2400,4002,1825,3549,6561,10398,15390,32,7646,1823,7326,10337,16032,8289,
38,2464,3810,1697,3485,6881,10654,15070,32,7838,1759,8286,10401,16032,8161,
39,2528,3874,1569,3869,6689,10462,15006,32,8094,2015,8414,10209,15776,8161,
40,2592,3938,1889,3869,6561,10078,15454,32,7774,2271,7326,10209,15776,8097,
41,2656,4002,1889,3485,7009,10270,15582,32,7646,1951,6814,10465,15904,8161,
42,2720,3938,1377,3613,7137,10782,15262,32,7774,1759,7070,10337,15648,8353,
43,2784,4002,1505,3997,6881,10782,15326,32,8094,2143,7070,10017,15584,7969,
44,2848,4066,2209,3933,7137,10270,15582,32,8030,2015,7454,10273,15968,7713,
45,2912,4002,2081,3613,7073,10462,15454,32,7710,1567,7774,10657,16160,8225,
46,2976,4002,1761,3741,6433,10590,15326,32,7646,1759,7582,10465,15840,8609,
47,3040,3874,1953,3933,6689,10142,15454,32,7710,2079,8222,10081,15712,8353,
48,3104,3746,1953,3741,7201,10142,15518,32,7710,2015,8478,10273,15904,7969,
49,3168,3874,1761,3421,7009,10718,15518,32,7774,2015,6878,10465,15840,8161,
50,3232,4130,1889,3613,6689,10782,15518,32,7966,2015,6750,10337,15776,8417,
51,3296,4002,1761,3677,6817,10526,15518,32,8030,2143,8606,10145,15840,8289,
52,3360,3682,1377,3357,7137,10526,15518,32,7774,2335,8478,10401,15840,8033,
53,3424,3810,1569,3549,7137,10398,15518,32,7838,1951,6558,10529,15776,7969,
54,3488,3874,1505,3805,6561,10334,15454,32,8158,1695,6942,10401,15968,8289,
55,3552,3682,1313,3677,6305,10590,15454,32,8030,1951,8222,10209,15904,8609,
56,3616,3874,1697,3421,6753,10654,15646,32,7710,2079,7646,10273,15904,8033,
57,3680,4066,1697,3421,6945,10590,15646,32,7966,1951,7454,10465,15968,7457,
58,3744,4002,1569,3549,6561,10590,15390,32,8158,1823,8478,10209,15968,8097,
59,3808,3874,1761,3741,6561,10590,15326,32,7966,1887,7902,10081,16032,8737,
60,3872,4002,1953,3613,6817,10718,15582,32,7774,1951,7262,10337,16096,8225,
61,3936,3874,2017,3357,6753,11038,15454,32,7966,1951,7518,10337,15968,7649,
62,4000,3746,1889,3613,6753,10910,15326,32,8094,1887,7198,10337,15648,8225,
63,4064,4002,1569,3869,6817,10462,15390,32,7966,2015,7262,10337,15840,8737,
64,4128,4066,1761,3613,6689,10590,15518,32,7838,1887,7454,10273,16032,8161,
65,4192,3746,2017,3485,6753,10910,15326,32,7902,1887,7518,10465,16096,8097,
66,4256,3746,1697,3485,6881,10590,15070,32,7966,2079,8222,10529,16032,8673,
67,4320,4066,1569,3357,6753,10270,15390,32,7838,2015,8414,10273,15904,8673,
68,4384,3874,2081,3357,6689,10270,15774,32,8030,1887,7582,10081,15648,8161,
69,4448,3746,2209,3357,6625,10078,15646,32,8094,1887,7774,10529,15840,8033,
70,4512,3938,1633,3357,6433,10334,15326,32,7966,1823,7454,10721,16160,7969,
71,4576,3874,1377,3485,6817,10718,15454,32,7966,1887,6430,10465,15968,7969,
72,4640,3810,2017,3613,7329,10526,15710,32,7966,1951,7518,10209,15648,8097,
73,4704,3874,2209,3613,6753,10526,15454,32,7902,1631,8542,10593,15776,7969,
74,4768,3938,1825,3549,6241,10910,15198,32,7902,1567,8222,10977,15904,7969,
75,4832,3682,1889,3421,6881,10590,15262,32,7774,2015,7902,10401,15776,8161,
76,4896,3554,1761,3549,7201,10078,15518,32,7774,2143,8094,10145,15712,8417,
77,4960,3810,1377,3677,6881,10526,15518,32,7966,1823,8350,10721,15712,8225,
78,5024,4002,1505,3421,6497,10782,15646,32,8030,1887,7838,11041,15776,8097,
79,5088,3938,1697,3293,6625,10526,15582,32,7710,2207,7326,10401,15776,8161,
80,5152,4002,1569,3677,7073,10782,15326,32,7774,2015,7454,10017,15712,8033,
81,5216,3938,1761,3869,7201,10782,15390,32,7966,1567,7454,10337,15584,7969,
82,5280,3746,1825,3677,6561,10270,15390,32,7902,1759,7198,10465,15840,8289,
83,5344,3746,1761,3677,6625,10590,15198,32,7582,2079,7710,10209,16032,8417,
84,5408,3810,1953,3805,7201,10974,15326,32,7710,1951,8286,10209,15840,8225,
85,5472,3874,2017,3677,7009,10654,15582,32,7902,1695,7966,10337,15776,7969,
86,5536,4002,1825,3293,6497,10590,15582,32,7774,1695,7582,10081,15904,8033,
87,5600,3874,1761,3229,6561,10398,15582,32,7838,1951,7454,10081,15904,8225,
88,5664,3874,1697,3549,6817,9886,15774,32,7966,2207,7902,10593,15840,7969,
89,5728,3938,1825,3677,6817,10206,15518,32,7838,1951,8094,10401,16032,7841,
90,5792,4002,1953,3549,6753,10910,15070,32,7710,1759,7646,10145,16096,8097,
91,5856,4002,1761,3613,6689,10526,15326,32,7838,1823,7582,10465,15776,8225,
92,5920,4066,1697,3613,6689,10142,15454,32,7966,1631,7774,10721,15776,7905,
93,5984,3874,1697,3549,6689,10078,15262,32,7966,1567,7838,10401,15904,8161,
94,6048,3490,1697,3613,6881,10142,15390,32,7774,1823,8030,10017,15776,8161,
95,6112,3618,1633,3357,6945,10462,15710,32,7710,2143,7582,10209,15776,7713,
96,6176,3298,1633,2845,6945,10718,15646,32,7966,2143,6878,10401,15904,7905,
97,6240,2850,1697,2909,6945,10654,15518,32,7902,1695,7198,10401,15712,8225,
98,6304,2850,1825,3229,6817,10654,15390,32,7838,1567,7902,10273,15520,8097,
99,6368,3298,1953,3037,7009,10782,15326,32,7966,1887,7838,10401,15712,7969,
100,6432,3170,2081,3101,7201,10846,15390,32,7710,1951,7774,10465,15584,8097,
101,6496,2978,2017,3485,6689,10526,15710,32,7518,1695,7966,10273,15392,8225,
102,6560,3234,1953,3485,6561,10334,15646,32,7838,1823,7390,10209,15648,8225,
103,6624,3426,1825,3421,7073,10654,15454,32,7966,2079,7262,10465,15840,8161,
104,6688,3554,1569,3549,6945,10846,15646,32,7582,1823,7518,10465,15584,7969,
105,6752,3426,1249,3549,6497,10462,15710,32,7582,1439,7390,10145,15648,7841,
106,6816,3426,1569,3549,6753,10590,15326,32,7838,1439,7198,10273,15904,7713,
107,6880,3554,2017,3613,7265,10846,15326,32,7902,1567,7134,10593,15648,7905,
108,6944,3426,1633,3357,7265,10718,15390,32,7710,1759,7454,10337,15584,8417,
